* Sea-Bird SBE19plus  Data File:
* FileName = C:\DATA\061719_FCR_0006.hex
* Software version 2.8.0.119 SB_Terminal.dll
* Temperature SN = 7809
* Conductivity SN = 7809
* System UpLoad Time = Jun 17 2019 17:02:03
* <ApplicationData>
* <Seaterm232>
* <SoftwareVersion>2.8.0.119</SoftwareVersion>
* <BuildDate>07-Nov-2018</BuildDate>
* </Seaterm232>
* </ApplicationData>
* cast   6 17 Jun 2019 11:22:06 samples 4745 to 5619, avg = 1, stop = mag switch
# nquan = 16
# nvalues = 809                         
# units = specified
# name 0 = depFM: Depth [fresh water, m]
# name 1 = dz/dtM: Descent Rate [m/s]
# name 2 = sbeox0Mg/L: Oxygen, SBE 43 [mg/l]
# name 3 = sbeox0PS: Oxygen, SBE 43 [% saturation]
# name 4 = specc: Specific Conductance [uS/cm]
# name 5 = c0uS/cm: Conductivity [uS/cm]
# name 6 = flECO-AFL: Fluorescence, WET Labs ECO-AFL/FL [mg/m^3]
# name 7 = ph: pH
# name 8 = orp: Oxidation Reduction Potential [mV]
# name 9 = par/sat/log: PAR/Logarithmic, Satlantic
# name 10 = turbWETntu0: Turbidity, WET Labs ECO [NTU]
# name 11 = prdM: Pressure, Strain Gauge [db]
# name 12 = prdE: Pressure, Strain Gauge [psi]
# name 13 = tv290C: Temperature [ITS-90, deg C]
# name 14 = density00: Density [density, kg/m^3]
# name 15 = flag:  0.000e+00
# span 0 =     -0.561,      5.149       
# span 1 =     -0.022,      0.111       
# span 2 =     2.3293,    10.2738       
# span 3 =     21.398,    111.143       
# span 4 =      1.403,     38.128       
# span 5 =   1.331795,  32.752431       
# span 6 =    -0.4855,     3.7752       
# span 7 =      6.597,      8.827       
# span 8 =   258.0382,   659.8130       
# span 9 = 1.0369e+01, 2.3873e+03       
# span 10 =    -3.2199,    11.0334      
# span 11 =     -0.550,      5.050      
# span 12 =     -0.798,      7.325      
# span 13 =    10.3913,    24.0142      
# span 14 =   997.3111,   999.7052      
# span 15 = 0.0000e+00, 0.0000e+00      
# interval = seconds: 0.25
# start_time = Jun 17 2019 11:22:06 [Instrument's time stamp, header]
# bad_flag = -9.990e-29
# <Sensors count="9" >
#   <sensor Channel="1" >
#     <!-- Count, Temperature -->
#     <TemperatureSensor SensorID="58" >
#       <SerialNumber>7809</SerialNumber>
#       <CalibrationDate>24-Mar-19</CalibrationDate>
#       <A0>1.21792325e-003</A0>
#       <A1>2.81669265e-004</A1>
#       <A2>-1.60333336e-006</A2>
#       <A3>1.98414625e-007</A3>
#       <Slope>1.00000000</Slope>
#       <Offset>0.0000</Offset>
#     </TemperatureSensor>
#   </sensor>
#   <sensor Channel="2" >
#     <!-- Frequency 0, Conductivity -->
#     <ConductivitySensor SensorID="3" >
#       <SerialNumber>7809</SerialNumber>
#       <CalibrationDate>24-Mar-19</CalibrationDate>
#       <UseG_J>1</UseG_J>
#       <!-- Cell const and series R are applicable only for wide range sensors. -->
#       <SeriesR>0.0000</SeriesR>
#       <CellConst>2000.0000</CellConst>
#       <ConductivityType>0</ConductivityType>
#       <Coefficients equation="0" >
#         <A>0.00000000e+000</A>
#         <B>0.00000000e+000</B>
#         <C>0.00000000e+000</C>
#         <D>0.00000000e+000</D>
#         <M>0.0</M>
#         <CPcor>-9.57000000e-008</CPcor>
#       </Coefficients>
#       <Coefficients equation="1" >
#         <G>-1.00589325e+000</G>
#         <H>1.26816302e-001</H>
#         <I>-1.51560448e-004</I>
#         <J>2.67137274e-005</J>
#         <CPcor>-9.57000000e-008</CPcor>
#         <CTcor>3.2500e-006</CTcor>
#         <!-- WBOTC not applicable unless ConductivityType = 1. -->
#         <WBOTC>0.00000000e+000</WBOTC>
#       </Coefficients>
#       <Slope>1.00000000</Slope>
#       <Offset>0.00000</Offset>
#     </ConductivitySensor>
#   </sensor>
#   <sensor Channel="3" >
#     <!-- Count, Pressure, Strain Gauge -->
#     <PressureSensor SensorID="46" >
#       <SerialNumber>7809</SerialNumber>
#       <CalibrationDate>11-Mar-19</CalibrationDate>
#       <PA0>4.56561833e-002</PA0>
#       <PA1>4.85095118e-004</PA1>
#       <PA2>-2.88327090e-012</PA2>
#       <PTEMPA0>-5.48784562e+001</PTEMPA0>
#       <PTEMPA1>5.53756816e+001</PTEMPA1>
#       <PTEMPA2>-5.86727098e-001</PTEMPA2>
#       <PTCA0>5.25246745e+005</PTCA0>
#       <PTCA1>1.22304214e+001</PTCA1>
#       <PTCA2>-3.56745036e-001</PTCA2>
#       <PTCB0>2.51668750e+001</PTCB0>
#       <PTCB1>3.75000000e-004</PTCB1>
#       <PTCB2>0.00000000e+000</PTCB2>
#       <Offset>0.000000</Offset>
#     </PressureSensor>
#   </sensor>
#   <sensor Channel="4" >
#     <!-- A/D voltage 0, Oxygen, SBE 43 -->
#     <OxygenSensor SensorID="38" >
#       <SerialNumber>0434</SerialNumber>
#       <CalibrationDate>13-Apr-19</CalibrationDate>
#       <Use2007Equation>1</Use2007Equation>
#       <CalibrationCoefficients equation="0" >
#         <!-- Coefficients for Owens-Millard equation. -->
#         <Boc>0.0000</Boc>
#         <Soc>0.0000e+000</Soc>
#         <offset>0.0000</offset>
#         <Pcor>0.00e+000</Pcor>
#         <Tcor>0.0000</Tcor>
#         <Tau>0.0</Tau>
#       </CalibrationCoefficients>
#       <CalibrationCoefficients equation="1" >
#         <!-- Coefficients for Sea-Bird equation - SBE calibration in 2007 and later. -->
#         <Soc>4.2007e-001</Soc>
#         <offset>-0.6109</offset>
#         <A>-4.3656e-003</A>
#         <B> 1.7017e-004</B>
#         <C>-2.5341e-006</C>
#         <D0> 2.5826e+000</D0>
#         <D1> 1.92634e-004</D1>
#         <D2>-4.64803e-002</D2>
#         <E> 3.6000e-002</E>
#         <Tau20> 1.1800</Tau20>
#         <H1>-3.3000e-002</H1>
#         <H2> 5.0000e+003</H2>
#         <H3> 1.4500e+003</H3>
#       </CalibrationCoefficients>
#     </OxygenSensor>
#   </sensor>
#   <sensor Channel="5" >
#     <!-- A/D voltage 1, PAR/Logarithmic, Satlantic -->
#     <PARLog_SatlanticSensor SensorID="76" >
#       <SerialNumber>1122</SerialNumber>
#       <CalibrationDate>08-May-2019</CalibrationDate>
#       <a0>9.7456e-001</a0>
#       <a1>8.1640e-001</a1>
#       <Im>1.3589e+000</Im>
#       <Multiplier>1.0000e+000</Multiplier>
#     </PARLog_SatlanticSensor>
#   </sensor>
#   <sensor Channel="6" >
#     <!-- A/D voltage 2, pH -->
#     <pH_Sensor SensorID="43" >
#       <SerialNumber>0363</SerialNumber>
#       <CalibrationDate>15-Apr-19</CalibrationDate>
#       <Slope>4.5952</Slope>
#       <Offset>2.5370</Offset>
#     </pH_Sensor>
#   </sensor>
#   <sensor Channel="7" >
#     <!-- A/D voltage 3, Oxidation Reduction Potential -->
#     <OxidationReductionPotentialSensor SensorID="41" >
#       <SerialNumber>0363</SerialNumber>
#       <CalibrationDate>15-Apr-19</CalibrationDate>
#       <B>2.499480</B>
#       <M>-0.496195</M>
#       <Offset>0.0</Offset>
#     </OxidationReductionPotentialSensor>
#   </sensor>
#   <sensor Channel="8" >
#     <!-- A/D voltage 4, Fluorometer, WET Labs ECO-AFL/FL -->
#     <FluoroWetlabECO_AFL_FL_Sensor SensorID="20" >
#       <SerialNumber>FLNTURT-2496</SerialNumber>
#       <CalibrationDate>08-May-2019</CalibrationDate>
#       <ScaleFactor>5.00000000e+001</ScaleFactor>
#       <!-- Dark output -->
#       <Vblank>0.0550</Vblank>
#     </FluoroWetlabECO_AFL_FL_Sensor>
#   </sensor>
#   <sensor Channel="9" >
#     <!-- A/D voltage 5, Turbidity Meter, WET Labs, ECO-NTU -->
#     <TurbidityMeter SensorID="67" >
#       <SerialNumber>FLNTURT-2496</SerialNumber>
#       <CalibrationDate>08-May-2019</CalibrationDate>
#       <ScaleFactor>189.000000</ScaleFactor>
#       <!-- Dark output -->
#       <DarkVoltage>0.071000</DarkVoltage>
#     </TurbidityMeter>
#   </sensor>
# </Sensors>
# datcnv_date = Jun 17 2019 17:05:35, 7.26.7.129 [datcnv_vars = 15]
# datcnv_in = C:\DATA\061719_FCR_0006.hex C:\DATA\SBE19plusV2_7809.xmlcon
# datcnv_skipover = 0
# datcnv_ox_hysteresis_correction = yes
# datcnv_ox_tau_correction = yes
# filter_date = Jun 17 2019 17:06:38, 7.26.7.129
# filter_in = C:\DATA\061719_FCR_0006.cnv
# filter_low_pass_tc_A = 0.030
# filter_low_pass_tc_B = 0.150
# filter_low_pass_A_vars = prdM prdE tv290C density00
# filter_low_pass_B_vars = depFM dz/dtM sbeox0Mg/L sbeox0PS specc c0uS/cm flECO-AFL ph orp par/sat/log turbWETntu0
# alignctd_date = Jun 17 2019 17:07:04, 7.26.7.129
# alignctd_in = C:\DATA\061719_FCR_0006.cnv
# alignctd_adv = dz/dtM 1.000, sbeox0Mg/L 1.000, sbeox0PS 1.000, specc 1.000, c0uS/cm 1.000, flECO-AFL 1.000, ph 1.000, orp 1.000, turbWETntu0 1.000                                                                                 
# file_type = ascii
*END*
     -0.560 4.6691e-17     8.2481     95.105      1.605   1.522517    -0.4687      6.624   659.8130 2.9617e+02     1.0387     -0.550     -0.797    22.3945   997.6873 0.0000e+00
     -0.560 5.1360e-16     8.2461     95.093      1.605   1.522193    -0.4855      6.623   658.4760 3.4700e+02     1.0945     -0.550     -0.798    22.4003   997.6861 0.0000e+00
     -0.560 5.6496e-15     8.2450     95.091      1.602   1.519765    -0.4813      6.613   659.5386 3.5892e+02     1.0848     -0.550     -0.797    22.4077   997.6843 0.0000e+00
     -0.560 6.2145e-14     8.2454     95.106      1.574   1.493161    -0.3652      6.602   659.6683 3.0856e+02     0.7243     -0.550     -0.798    22.4148   997.6827 0.0000e+00
     -0.560 6.8360e-13     8.2455     95.117      1.532   1.453980    -0.1653      6.597   657.0329 2.5178e+02     0.0791     -0.549     -0.797    22.4216   997.6811 0.0000e+00
     -0.560 7.5196e-12     8.2457     95.129      1.502   1.426208    -0.0679      6.601   654.6042 2.1968e+02    -0.2605     -0.550     -0.797    22.4271   997.6798 0.0000e+00
     -0.560 8.2715e-11     8.2460     95.140      1.486   1.410814    -0.0633      6.606   652.2441 1.9435e+02    -0.2676     -0.549     -0.796    22.4327   997.6786 0.0000e+00
     -0.560 9.0987e-10     8.2447     95.132      1.469   1.394576    -0.0834      6.607   650.0069 1.7188e+02    -0.2369     -0.549     -0.796    22.4390   997.6771 0.0000e+00
     -0.560 1.0009e-08     8.2420     95.107      1.429   1.356598    -0.1378      6.609   647.8599 1.6666e+02    -0.2496     -0.550     -0.797    22.4447   997.6757 0.0000e+00
     -0.560 1.1009e-07     8.2410     95.102      1.403   1.331795    -0.1752      6.615   645.5567 1.7077e+02    -0.3230     -0.550     -0.797    22.4494   997.6747 0.0000e+00
     -0.560      0.000     8.2415     95.114      1.420   1.348125    -0.1795      6.625   643.2384 1.7464e+02    -0.3383     -0.549     -0.797    22.4531   997.6738 0.0000e+00
     -0.560      0.000     8.2401     95.104      1.503   1.427326    -0.1625      6.636   640.9958 1.7982e+02    -0.1718     -0.550     -0.797    22.4569   997.6730 0.0000e+00
     -0.560      0.000     8.2383     95.090      1.610   1.529064    -0.1349      6.653   632.3795 1.8947e+02     0.0845     -0.550     -0.797    22.4603   997.6721 0.0000e+00
     -0.560      0.002     8.2372     95.085      1.647   1.564449    -0.1240      6.688   541.5551 2.2660e+02     0.2037     -0.550     -0.797    22.4647   997.6711 0.0000e+00
     -0.561      0.008     8.2354     95.091      1.686   1.601705    -0.0749      6.857   374.0712 3.3093e+02     0.1223     -0.550     -0.798    22.4670   997.6706 0.0000e+00
     -0.561      0.020     8.2234     95.113      1.746   1.662718     0.4589      7.250   281.9282 5.1872e+02    -0.7685     -0.550     -0.798    22.4723   997.6694 0.0000e+00
     -0.560      0.035     8.1870     95.114      2.202   2.112064     1.4147      7.705   273.7439 7.4529e+02    -2.3730     -0.550     -0.797    22.4729   997.6692 0.0000e+00
     -0.554      0.050     8.1361     95.082      5.377   5.197145     1.9275      8.050   275.2015 9.6226e+02    -3.2199     -0.550     -0.797    22.4809   997.6675 0.0000e+00
     -0.535      0.061     8.0953     95.061     12.797  12.409041     1.9259      8.295   276.7510 1.1132e+03    -3.1754     -0.531     -0.770    22.4762   997.6686 0.0000e+00
     -0.505      0.073     8.0706     95.068     22.433  21.800972     1.3344      8.482   274.9280 1.1531e+03    -2.1295     -0.492     -0.713    22.5109   997.6608 0.0000e+00
     -0.480      0.087     8.0535     95.068     30.141  29.343212     0.2292      8.622   272.8618 1.0193e+03    -0.2424     -0.465     -0.674    22.7815   997.5976 0.0000e+00
     -0.465      0.100     8.0400     95.058     33.133  32.303207    -0.3745      8.717   273.0199 7.6481e+02     0.7974     -0.458     -0.664    23.1654   997.5074 0.0000e+00
     -0.450      0.108     8.0299     95.048     33.391  32.593759    -0.4161      8.772   274.4310 7.2244e+02     0.9394     -0.447     -0.648    23.4137   997.4498 0.0000e+00
     -0.420      0.111     8.0223     95.038     33.434  32.665920    -0.3861      8.800   275.8994 1.0866e+03     1.1791     -0.418     -0.606    23.5596   997.4179 0.0000e+00
     -0.378      0.111     8.0173     95.040     33.477  32.731526    -0.0984      8.814   276.7497 1.5820e+03     3.7279     -0.371     -0.538    23.6675   997.3949 0.0000e+00
     -0.338      0.111     8.0140     95.049     33.481  32.752431     0.4352      8.823   276.9686 1.8223e+03     8.4232     -0.326     -0.471    23.7462   997.3761 0.0000e+00
     -0.310      0.107     8.0125     95.069     33.441  32.728321     0.7332      8.827   276.1361 1.8598e+03    10.9871     -0.300     -0.436    23.8067   997.3613 0.0000e+00
     -0.292      0.097     8.0135     95.116     33.392  32.693879     0.7732      8.825   274.6862 1.9036e+03    11.0334     -0.288     -0.418    23.8489   997.3512 0.0000e+00
     -0.274      0.086     8.0184     95.207     33.338  32.653309     0.8154      8.820   273.8065 1.9666e+03     8.5895     -0.270     -0.391    23.8833   997.3428 0.0000e+00
     -0.253      0.076     8.0271     95.335     33.293  32.618570     0.8704      8.814   273.5015 2.0293e+03     4.0509     -0.249     -0.361    23.9103   997.3363 0.0000e+00
     -0.231      0.071     8.0378     95.480     33.258  32.591173     0.8925      8.808   272.9779 2.0812e+03     1.5794     -0.227     -0.329    23.9287   997.3318 0.0000e+00
     -0.210      0.066     8.0509     95.648     33.238  32.575894     0.8924      8.801   272.0356 2.1173e+03     1.3534     -0.204     -0.296    23.9485   997.3271 0.0000e+00
     -0.194      0.061     8.0655     95.834     33.218  32.560765     0.9035      8.791   271.3997 2.1464e+03     1.3834     -0.188     -0.273    23.9688   997.3221 0.0000e+00
     -0.183      0.054     8.0799     96.009     33.190  32.535172     0.9140      8.779   271.8286 2.1805e+03     1.5167     -0.179     -0.260    23.9836   997.3185 0.0000e+00
     -0.172      0.044     8.0944     96.160     33.184  32.520292     0.9067      8.764   273.0051 2.2165e+03     1.6213     -0.169     -0.247    23.9917   997.3165 0.0000e+00
     -0.159      0.034     8.1104     96.300     33.189  32.507759     0.8929      8.751   273.8378 2.2418e+03     1.6325     -0.156     -0.227    23.9978   997.3150 0.0000e+00
     -0.147      0.024     8.1235     96.410     33.209  32.510525     0.8940      8.741   274.1528 2.2481e+03     1.6192     -0.142     -0.206    24.0053   997.3132 0.0000e+00
     -0.142      0.015     8.1304     96.464     33.264  32.553722     0.9025      8.735   274.6627 2.2377e+03     1.6238     -0.135     -0.196    24.0142   997.3111 0.0000e+00
     -0.144      0.007     8.1314     96.457     33.304  32.585819     0.9005      8.731   275.4433 2.2169e+03     1.6219     -0.140     -0.203    24.0023   997.3140 0.0000e+00
     -0.148      0.000     8.1294     96.406     33.309  32.581300     0.8968      8.726   276.1061 2.1886e+03     1.5969     -0.146     -0.213    23.9667   997.3227 0.0000e+00
     -0.149     -0.004     8.1280     96.356     33.303  32.562526     0.9008      8.721   276.2226 2.1640e+03     1.5842     -0.147     -0.214    23.9377   997.3299 0.0000e+00
     -0.149     -0.004     8.1263     96.301     33.303  32.549180     0.9057      8.715   276.0779 2.1540e+03     1.5989     -0.145     -0.211    23.9246   997.3331 0.0000e+00
     -0.149     -0.001     8.1237     96.238     33.312  32.546832     0.9046      8.711   276.3351 2.1530e+03     1.6108     -0.146     -0.210    23.9182   997.3347 0.0000e+00
     -0.152      0.002     8.1237     96.215     33.308  32.534127     0.8957      8.708   276.9233 2.1541e+03     1.5968     -0.149     -0.216    23.9042   997.3382 0.0000e+00
     -0.152      0.003     8.1309     96.292     33.299  32.522466     0.8935      8.705   277.2533 2.1574e+03     1.5936     -0.151     -0.218    23.8824   997.3435 0.0000e+00
     -0.149      0.004     8.1414     96.421     33.309  32.532755     0.9389      8.701   277.3141 2.1649e+03     1.6041     -0.146     -0.212    23.8620   997.3486 0.0000e+00
     -0.145      0.004     8.1294     96.287     33.304  32.531610     1.0279      8.696   277.9162 2.1748e+03     1.5938     -0.141     -0.204    23.8438   997.3530 0.0000e+00
     -0.144      0.004     8.0712     95.603     33.278  32.508628     1.0863      8.693   279.1130 2.1789e+03     1.5672     -0.141     -0.204    23.8300   997.3564 0.0000e+00
     -0.144     -0.001     7.9746     94.460     33.278  32.508731     1.0973      8.693   280.2546 2.1754e+03     1.5450     -0.142     -0.206    23.8247   997.3576 0.0000e+00
     -0.143     -0.009     7.8591     93.090     33.303  32.532853     1.1355      8.694   281.2225 2.1741e+03     1.5544     -0.141     -0.203    23.8290   997.3566 0.0000e+00
     -0.143     -0.017     7.7345     91.615     33.317  32.546453     1.2189      8.693   281.8677 2.1794e+03     1.5834     -0.139     -0.201    23.8359   997.3550 0.0000e+00
     -0.148     -0.022     7.6050     90.086     33.315  32.546233     1.2726      8.688   281.9471 2.1799e+03     1.6004     -0.142     -0.206    23.8396   997.3540 0.0000e+00
     -0.158     -0.022     7.4730     88.524     33.297  32.530201     1.2731      8.678   281.8388 2.1582e+03     1.5959     -0.153     -0.223    23.8401   997.3538 0.0000e+00
     -0.172     -0.019     7.3415     86.963     33.247  32.479540     1.2255      8.667   282.0211 2.1220e+03     1.5940     -0.170     -0.247    23.8377   997.3543 0.0000e+00
     -0.182     -0.014     7.2188     85.504     33.210  32.441362     1.1478      8.657   282.7743 2.1016e+03     1.6100     -0.184     -0.266    23.8367   997.3545 0.0000e+00
     -0.182     -0.009     7.1150     84.264     33.223  32.449343     1.1049      8.647   283.7184 2.0954e+03     1.6258     -0.181     -0.263    23.8405   997.3536 0.0000e+00
     -0.174     -0.005     7.0344     83.285     33.233  32.449114     1.0971      8.637   284.1440 1.9941e+03     1.6216     -0.170     -0.246    23.8458   997.3523 0.0000e+00
     -0.168     -0.003     6.9745     82.553     33.232  32.438579     1.0890      8.627   284.2210 1.7662e+03     1.5911     -0.162     -0.235    23.8394   997.3539 0.0000e+00
     -0.169     -0.004     6.9281     81.998     33.246  32.448866     1.0850      8.619   284.3915 1.3999e+03     1.5850     -0.164     -0.238    23.8364   997.3546 0.0000e+00
     -0.177     -0.005     6.8861     81.507     33.241  32.446576     1.0913      8.614   284.4838 9.6431e+02     1.6131     -0.173     -0.251    23.8363   997.3547 0.0000e+00
     -0.184     -0.006     6.8440     81.014     33.202  32.410893     1.0878      8.608   284.3046 7.6507e+02     1.6037     -0.182     -0.264    23.8130   997.3604 0.0000e+00
     -0.187     -0.004     6.7975     80.464     33.189  32.398190     1.0338      8.600   284.2900 7.4060e+02     1.5699     -0.186     -0.270    23.7950   997.3647 0.0000e+00
     -0.186      0.001     6.7460     79.855     33.211  32.419903     0.9498      8.592   284.4786 7.0608e+02     1.5641     -0.183     -0.265    23.7930   997.3652 0.0000e+00
