* Sea-Bird SBE19plus  Data File:
* FileName = C:\DATA\061719_FCR_0005.hex
* Software version 2.8.0.119 SB_Terminal.dll
* Temperature SN = 7809
* Conductivity SN = 7809
* System UpLoad Time = Jun 17 2019 17:01:39
* <ApplicationData>
* <Seaterm232>
* <SoftwareVersion>2.8.0.119</SoftwareVersion>
* <BuildDate>07-Nov-2018</BuildDate>
* </Seaterm232>
* </ApplicationData>
* cast   5 17 Jun 2019 11:13:43 samples 4016 to 4744, avg = 1, stop = mag switch
# nquan = 16
# nvalues = 662                         
# units = specified
# name 0 = depFM: Depth [fresh water, m]
# name 1 = dz/dtM: Descent Rate [m/s]
# name 2 = sbeox0Mg/L: Oxygen, SBE 43 [mg/l]
# name 3 = sbeox0PS: Oxygen, SBE 43 [% saturation]
# name 4 = specc: Specific Conductance [uS/cm]
# name 5 = c0uS/cm: Conductivity [uS/cm]
# name 6 = flECO-AFL: Fluorescence, WET Labs ECO-AFL/FL [mg/m^3]
# name 7 = ph: pH
# name 8 = orp: Oxidation Reduction Potential [mV]
# name 9 = par/sat/log: PAR/Logarithmic, Satlantic
# name 10 = turbWETntu0: Turbidity, WET Labs ECO [NTU]
# name 11 = prdM: Pressure, Strain Gauge [db]
# name 12 = prdE: Pressure, Strain Gauge [psi]
# name 13 = tv290C: Temperature [ITS-90, deg C]
# name 14 = density00: Density [density, kg/m^3]
# name 15 = flag:  0.000e+00
# span 0 =     -0.571,      3.157       
# span 1 =     -0.010,      0.135       
# span 2 =     0.7222,    11.3835       
# span 3 =      7.326,    122.582       
# span 4 =      1.577,     90.130       
# span 5 =   1.606219,  73.829737       
# span 6 =    -1.0261,    85.6956       
# span 7 =      6.614,      9.190       
# span 8 = -1240.7455,   309.5849       
# span 9 = 6.5694e+01, 2.1192e+03       
# span 10 =   -10.5821,    34.8845      
# span 11 =     -0.560,      3.097      
# span 12 =     -0.812,      4.492      
# span 13 =    15.8650,    25.9943      
# span 14 =   996.7937,   999.0099      
# span 15 = 0.0000e+00, 0.0000e+00      
# interval = seconds: 0.25
# start_time = Jun 17 2019 11:13:43 [Instrument's time stamp, header]
# bad_flag = -9.990e-29
# <Sensors count="9" >
#   <sensor Channel="1" >
#     <!-- Count, Temperature -->
#     <TemperatureSensor SensorID="58" >
#       <SerialNumber>7809</SerialNumber>
#       <CalibrationDate>24-Mar-19</CalibrationDate>
#       <A0>1.21792325e-003</A0>
#       <A1>2.81669265e-004</A1>
#       <A2>-1.60333336e-006</A2>
#       <A3>1.98414625e-007</A3>
#       <Slope>1.00000000</Slope>
#       <Offset>0.0000</Offset>
#     </TemperatureSensor>
#   </sensor>
#   <sensor Channel="2" >
#     <!-- Frequency 0, Conductivity -->
#     <ConductivitySensor SensorID="3" >
#       <SerialNumber>7809</SerialNumber>
#       <CalibrationDate>24-Mar-19</CalibrationDate>
#       <UseG_J>1</UseG_J>
#       <!-- Cell const and series R are applicable only for wide range sensors. -->
#       <SeriesR>0.0000</SeriesR>
#       <CellConst>2000.0000</CellConst>
#       <ConductivityType>0</ConductivityType>
#       <Coefficients equation="0" >
#         <A>0.00000000e+000</A>
#         <B>0.00000000e+000</B>
#         <C>0.00000000e+000</C>
#         <D>0.00000000e+000</D>
#         <M>0.0</M>
#         <CPcor>-9.57000000e-008</CPcor>
#       </Coefficients>
#       <Coefficients equation="1" >
#         <G>-1.00589325e+000</G>
#         <H>1.26816302e-001</H>
#         <I>-1.51560448e-004</I>
#         <J>2.67137274e-005</J>
#         <CPcor>-9.57000000e-008</CPcor>
#         <CTcor>3.2500e-006</CTcor>
#         <!-- WBOTC not applicable unless ConductivityType = 1. -->
#         <WBOTC>0.00000000e+000</WBOTC>
#       </Coefficients>
#       <Slope>1.00000000</Slope>
#       <Offset>0.00000</Offset>
#     </ConductivitySensor>
#   </sensor>
#   <sensor Channel="3" >
#     <!-- Count, Pressure, Strain Gauge -->
#     <PressureSensor SensorID="46" >
#       <SerialNumber>7809</SerialNumber>
#       <CalibrationDate>11-Mar-19</CalibrationDate>
#       <PA0>4.56561833e-002</PA0>
#       <PA1>4.85095118e-004</PA1>
#       <PA2>-2.88327090e-012</PA2>
#       <PTEMPA0>-5.48784562e+001</PTEMPA0>
#       <PTEMPA1>5.53756816e+001</PTEMPA1>
#       <PTEMPA2>-5.86727098e-001</PTEMPA2>
#       <PTCA0>5.25246745e+005</PTCA0>
#       <PTCA1>1.22304214e+001</PTCA1>
#       <PTCA2>-3.56745036e-001</PTCA2>
#       <PTCB0>2.51668750e+001</PTCB0>
#       <PTCB1>3.75000000e-004</PTCB1>
#       <PTCB2>0.00000000e+000</PTCB2>
#       <Offset>0.000000</Offset>
#     </PressureSensor>
#   </sensor>
#   <sensor Channel="4" >
#     <!-- A/D voltage 0, Oxygen, SBE 43 -->
#     <OxygenSensor SensorID="38" >
#       <SerialNumber>0434</SerialNumber>
#       <CalibrationDate>13-Apr-19</CalibrationDate>
#       <Use2007Equation>1</Use2007Equation>
#       <CalibrationCoefficients equation="0" >
#         <!-- Coefficients for Owens-Millard equation. -->
#         <Boc>0.0000</Boc>
#         <Soc>0.0000e+000</Soc>
#         <offset>0.0000</offset>
#         <Pcor>0.00e+000</Pcor>
#         <Tcor>0.0000</Tcor>
#         <Tau>0.0</Tau>
#       </CalibrationCoefficients>
#       <CalibrationCoefficients equation="1" >
#         <!-- Coefficients for Sea-Bird equation - SBE calibration in 2007 and later. -->
#         <Soc>4.2007e-001</Soc>
#         <offset>-0.6109</offset>
#         <A>-4.3656e-003</A>
#         <B> 1.7017e-004</B>
#         <C>-2.5341e-006</C>
#         <D0> 2.5826e+000</D0>
#         <D1> 1.92634e-004</D1>
#         <D2>-4.64803e-002</D2>
#         <E> 3.6000e-002</E>
#         <Tau20> 1.1800</Tau20>
#         <H1>-3.3000e-002</H1>
#         <H2> 5.0000e+003</H2>
#         <H3> 1.4500e+003</H3>
#       </CalibrationCoefficients>
#     </OxygenSensor>
#   </sensor>
#   <sensor Channel="5" >
#     <!-- A/D voltage 1, PAR/Logarithmic, Satlantic -->
#     <PARLog_SatlanticSensor SensorID="76" >
#       <SerialNumber>1122</SerialNumber>
#       <CalibrationDate>08-May-2019</CalibrationDate>
#       <a0>9.7456e-001</a0>
#       <a1>8.1640e-001</a1>
#       <Im>1.3589e+000</Im>
#       <Multiplier>1.0000e+000</Multiplier>
#     </PARLog_SatlanticSensor>
#   </sensor>
#   <sensor Channel="6" >
#     <!-- A/D voltage 2, pH -->
#     <pH_Sensor SensorID="43" >
#       <SerialNumber>0363</SerialNumber>
#       <CalibrationDate>15-Apr-19</CalibrationDate>
#       <Slope>4.5952</Slope>
#       <Offset>2.5370</Offset>
#     </pH_Sensor>
#   </sensor>
#   <sensor Channel="7" >
#     <!-- A/D voltage 3, Oxidation Reduction Potential -->
#     <OxidationReductionPotentialSensor SensorID="41" >
#       <SerialNumber>0363</SerialNumber>
#       <CalibrationDate>15-Apr-19</CalibrationDate>
#       <B>2.499480</B>
#       <M>-0.496195</M>
#       <Offset>0.0</Offset>
#     </OxidationReductionPotentialSensor>
#   </sensor>
#   <sensor Channel="8" >
#     <!-- A/D voltage 4, Fluorometer, WET Labs ECO-AFL/FL -->
#     <FluoroWetlabECO_AFL_FL_Sensor SensorID="20" >
#       <SerialNumber>FLNTURT-2496</SerialNumber>
#       <CalibrationDate>08-May-2019</CalibrationDate>
#       <ScaleFactor>5.00000000e+001</ScaleFactor>
#       <!-- Dark output -->
#       <Vblank>0.0550</Vblank>
#     </FluoroWetlabECO_AFL_FL_Sensor>
#   </sensor>
#   <sensor Channel="9" >
#     <!-- A/D voltage 5, Turbidity Meter, WET Labs, ECO-NTU -->
#     <TurbidityMeter SensorID="67" >
#       <SerialNumber>FLNTURT-2496</SerialNumber>
#       <CalibrationDate>08-May-2019</CalibrationDate>
#       <ScaleFactor>189.000000</ScaleFactor>
#       <!-- Dark output -->
#       <DarkVoltage>0.071000</DarkVoltage>
#     </TurbidityMeter>
#   </sensor>
# </Sensors>
# datcnv_date = Jun 17 2019 17:05:34, 7.26.7.129 [datcnv_vars = 15]
# datcnv_in = C:\DATA\061719_FCR_0005.hex C:\DATA\SBE19plusV2_7809.xmlcon
# datcnv_skipover = 0
# datcnv_ox_hysteresis_correction = yes
# datcnv_ox_tau_correction = yes
# filter_date = Jun 17 2019 17:06:38, 7.26.7.129
# filter_in = C:\DATA\061719_FCR_0005.cnv
# filter_low_pass_tc_A = 0.030
# filter_low_pass_tc_B = 0.150
# filter_low_pass_A_vars = prdM prdE tv290C density00
# filter_low_pass_B_vars = depFM dz/dtM sbeox0Mg/L sbeox0PS specc c0uS/cm flECO-AFL ph orp par/sat/log turbWETntu0
# alignctd_date = Jun 17 2019 17:07:04, 7.26.7.129
# alignctd_in = C:\DATA\061719_FCR_0005.cnv
# alignctd_adv = dz/dtM 1.000, sbeox0Mg/L 1.000, sbeox0PS 1.000, specc 1.000, c0uS/cm 1.000, flECO-AFL 1.000, ph 1.000, orp 1.000, turbWETntu0 1.000                                                                                 
# file_type = ascii
*END*
     -0.571 2.3083e-24     7.7100     95.024      2.390   2.437058    -0.1030      6.993 -1151.0425 1.7423e+03    -0.3133     -0.560     -0.812    25.9913   996.7944 0.0000e+00
     -0.571 2.5391e-23     7.7105     95.027      2.253   2.297902    -0.1014      7.001 -1205.5452 1.5068e+03    -0.2849     -0.560     -0.812    25.9922   996.7943 0.0000e+00
     -0.570 2.7930e-22     7.7122     95.038      2.133   2.175471    -0.1059      7.016 -1232.6647 1.1944e+03    -0.2451     -0.559     -0.811    25.9930   996.7941 0.0000e+00
     -0.570 3.0723e-21     7.7130     95.035      2.057   2.097292    -0.1063      7.022 -1240.0109 9.6407e+02    -0.2908     -0.559     -0.811    25.9936   996.7939 0.0000e+00
     -0.570 3.3795e-20     7.7129     95.020      2.011   2.049641    -0.1058      7.019 -1240.6787 8.6319e+02    -0.4110     -0.559     -0.811    25.9943   996.7937 0.0000e+00
     -0.570 3.7175e-19     7.7136     95.013      1.942   1.979502    -0.1085      7.017 -1240.7395 8.1899e+02    -0.4865     -0.559     -0.811    25.9930   996.7940 0.0000e+00
     -0.570 4.0893e-18     7.7144     95.009      1.848   1.882883    -0.1134      7.019 -1240.7450 7.3599e+02    -0.5147     -0.559     -0.811    25.9878   996.7953 0.0000e+00
     -0.570 4.4982e-17     7.7158     95.015      1.736   1.768503    -0.1206      7.020 -1240.7455 5.5271e+02    -0.4907     -0.559     -0.810    25.9800   996.7974 0.0000e+00
     -0.570 4.9480e-16     7.7184     95.038      1.643   1.673702    -0.1184      7.020 -1240.7455 3.4132e+02    -0.4578     -0.559     -0.812    25.9713   996.7997 0.0000e+00
     -0.570 5.4428e-15     7.7209     95.062      1.593   1.623715    -0.1134      7.019 -1240.7455 2.3397e+02    -0.4783     -0.560     -0.811    25.9618   996.8022 0.0000e+00
     -0.570 5.9871e-14     7.7215     95.059      1.578   1.607653    -0.1199      7.018 -1240.7455 2.0497e+02    -0.5083     -0.559     -0.810    25.9530   996.8045 0.0000e+00
     -0.570 6.5858e-13     7.7209     95.039      1.577   1.606219    -0.1193      7.018 -1240.7455 1.8614e+02    -0.5261     -0.559     -0.811    25.9463   996.8063 0.0000e+00
     -0.570 7.2444e-12     7.7225     95.046      1.577   1.606372    -0.1058      7.019 -1240.7455 1.7450e+02    -0.5286     -0.559     -0.811    25.9424   996.8073 0.0000e+00
     -0.570 7.9688e-11     7.7250     95.067      1.580   1.609512    -0.1045      7.021 -1240.7455 1.7499e+02    -0.5063     -0.559     -0.811    25.9395   996.8081 0.0000e+00
     -0.570 8.7657e-10     7.7244     95.054      1.614   1.644186    -0.1119      7.022 -1240.7455 2.4530e+02    -0.4862     -0.559     -0.811    25.9336   996.8097 0.0000e+00
     -0.570 9.6422e-09     7.7233     95.036      1.678   1.708794    -0.1179      7.024 -1240.7455 3.8932e+02    -0.4827     -0.559     -0.811    25.9252   996.8119 0.0000e+00
     -0.570 1.0606e-07     7.7243     95.045      1.725   1.757065    -0.1244      7.024 -1240.7454 4.9057e+02    -0.4957     -0.559     -0.811    25.9169   996.8141 0.0000e+00
     -0.570      0.000     7.7255     95.057      1.752   1.784285    -0.1301      7.021 -1240.7444 5.3415e+02    -0.5461     -0.559     -0.811    25.9113   996.8156 0.0000e+00
     -0.570      0.000     7.7260     95.060      1.753   1.784462    -0.1432      6.999 -1240.7332 5.9463e+02    -0.5346     -0.559     -0.811    25.9081   996.8164 0.0000e+00
     -0.570      0.000     7.7255     95.046      1.728   1.759217    -0.3526      6.804 -1240.6099 6.9514e+02    -0.1262     -0.559     -0.811    25.9065   996.8169 0.0000e+00
     -0.570      0.002     7.7282     95.024      2.515   2.556192    -0.7720      6.614 -1239.2537 8.3395e+02     0.5235     -0.559     -0.811    25.9046   996.8174 0.0000e+00
     -0.571      0.007     7.7431     95.024      6.959   7.048313    -1.0170      6.821 -1224.3353 1.0033e+03     0.8323     -0.560     -0.812    25.9028   996.8178 0.0000e+00
     -0.571      0.018     7.7700     95.048     14.597  14.747127    -1.0261      7.190 -1060.2337 1.1767e+03     0.8549     -0.560     -0.812    25.9001   996.8185 0.0000e+00
     -0.570      0.032     7.7968     95.067     20.871  21.030292    -0.9611      7.455  -620.2995 1.3159e+03     0.6004     -0.560     -0.812    25.9001   996.8186 0.0000e+00
     -0.565      0.046     7.8167     95.077     26.198  26.333407    -0.3780      7.681  -106.4250 1.3895e+03    -2.3441     -0.560     -0.811    25.8960   996.8195 0.0000e+00
     -0.547      0.060     7.8307     95.085     31.307  31.416516     0.6926      7.925   196.0842 1.3944e+03    -7.7087     -0.541     -0.785    25.7936   996.8472 0.0000e+00
     -0.521      0.075     7.8404     95.087     33.496  33.572827     1.2678      8.209   280.7017 1.3729e+03   -10.5821     -0.508     -0.737    25.5771   996.9071 0.0000e+00
     -0.498      0.089     7.8484     95.091     33.582  33.624199     1.2786      8.480   289.0215 1.3671e+03   -10.4749     -0.486     -0.704    25.3820   996.9594 0.0000e+00
     -0.480      0.100     7.8578     95.090     33.499  33.497244     0.8231      8.705   291.8601 1.2782e+03    -6.7400     -0.474     -0.686    25.2557   996.9935 0.0000e+00
     -0.457      0.107     7.8741     95.087     33.449  33.370478    -0.0523      8.877   293.3407 9.9123e+02     0.0996     -0.454     -0.657    25.1666   997.0191 0.0000e+00
     -0.424      0.114     7.9030     95.117     33.433  33.233696    -0.5406      8.990   293.5018 7.4046e+02     3.7940     -0.415     -0.602    25.1044   997.0354 0.0000e+00
     -0.389      0.123     7.9418     95.200     33.458  33.112474    -0.5543      9.058   292.5169 6.9115e+02     4.0746     -0.379     -0.550    25.0591   997.0470 0.0000e+00
     -0.359      0.131     7.9819     95.336     33.588  33.110348    -0.2095      9.106   291.3265 6.2044e+02     3.5914     -0.355     -0.515    25.0082   997.0602 0.0000e+00
     -0.326      0.135     8.0203     95.542     33.783  33.207783     0.4196      9.139   289.8635 4.8174e+02     2.6052     -0.323     -0.467    24.9052   997.0866 0.0000e+00
     -0.289      0.134     8.0572     95.822     33.913  33.275032     0.7576      9.159   288.1642 3.9675e+02     2.0476     -0.284     -0.411    24.7116   997.1361 0.0000e+00
     -0.251      0.129     8.0907     96.150     33.954  33.288749     0.7921      9.172   286.7843 3.6218e+02     1.9942     -0.247     -0.358    24.4678   997.1977 0.0000e+00
     -0.214      0.121     8.1197     96.490     33.977  33.310135     0.8365      9.183   285.8271 3.5141e+02     1.8938     -0.207     -0.300    24.2619   997.2495 0.0000e+00
     -0.184      0.110     8.1457     96.814     34.006  33.343215     0.9038      9.189   285.5383 3.5768e+02     1.6862     -0.176     -0.255    24.1263   997.2833 0.0000e+00
     -0.160      0.096     8.1692     97.107     34.030  33.371418     0.9298      9.190   285.8746 4.5264e+02     1.5491     -0.157     -0.228    24.0354   997.3060 0.0000e+00
     -0.139      0.081     8.1892     97.358     34.051  33.397300     0.9168      9.186   286.6235 8.5731e+02     1.5468     -0.136     -0.197    23.9992   997.3149 0.0000e+00
     -0.119      0.066     8.2047     97.560     34.050  33.402309     0.8943      9.178   287.4516 1.4599e+03     1.5928     -0.115     -0.167    24.0109   997.3122 0.0000e+00
     -0.104      0.053     8.2156     97.702     34.010  33.368526     0.8743      9.168   287.8857 1.8038e+03     1.6134     -0.101     -0.147    24.0213   997.3098 0.0000e+00
     -0.093      0.043     8.2211     97.762     33.948  33.306157     0.8744      9.158   287.9139 1.8702e+03     1.5990     -0.090     -0.130    24.0264   997.3086 0.0000e+00
     -0.084      0.034     8.2244     97.757     33.877  33.219372     0.8777      9.148   287.8787 1.8726e+03     1.5827     -0.082     -0.119    24.0333   997.3069 0.0000e+00
     -0.078      0.026     8.2296     97.709     33.777  33.080732     0.8626      9.138   288.0623 1.8498e+03     1.5475     -0.076     -0.110    24.0441   997.3042 0.0000e+00
     -0.074      0.020     8.2375     97.625     33.657  32.899031     0.8562      9.131   288.4136 1.8219e+03     1.5012     -0.072     -0.105    24.0551   997.3015 0.0000e+00
     -0.070      0.016     8.2440     97.499     33.567  32.735792     0.8873      9.126   288.5985 1.8074e+03     1.5468     -0.069     -0.100    24.0550   997.3016 0.0000e+00
     -0.067      0.014     8.2406     97.268     33.531  32.629962     0.9266      9.121   288.4047 1.8015e+03     1.6400     -0.065     -0.094    24.0376   997.3058 0.0000e+00
     -0.063      0.012     8.2215     96.878     33.532  32.571255     0.9317      9.116   288.0492 1.7799e+03     1.6445     -0.062     -0.089    23.9797   997.3201 0.0000e+00
     -0.060      0.011     8.1877     96.352     33.542  32.533553     0.8894      9.112   287.6566 1.6462e+03     1.6352     -0.059     -0.086    23.8723   997.3464 0.0000e+00
     -0.057      0.009     8.1450     95.747     33.538  32.491346     0.8308      9.108   287.0985 1.2716e+03     1.6581     -0.056     -0.082    23.7524   997.3758 0.0000e+00
     -0.054      0.008     8.0973     95.100     33.520  32.441637     0.7950      9.103   286.7225 7.9290e+02     1.6271     -0.053     -0.077    23.6459   997.4018 0.0000e+00
     -0.053      0.008     8.0416     94.386     33.541  32.440156     0.7860      9.095   286.8105 5.0488e+02     1.5547     -0.051     -0.074    23.5540   997.4241 0.0000e+00
     -0.053      0.008     7.9784     93.608     33.590  32.473408     0.8091      9.088   287.2159 4.4001e+02     1.5362     -0.052     -0.076    23.4863   997.4405 0.0000e+00
     -0.052      0.008     7.9145     92.827     33.592  32.462911     0.8488      9.085   287.6659 6.4712e+02     1.6002     -0.053     -0.077    23.4329   997.4534 0.0000e+00
     -0.048      0.009     7.8575     92.118     33.585  32.440139     0.8674      9.085   287.8632 9.4226e+02     1.6414     -0.047     -0.069    23.3799   997.4662 0.0000e+00
     -0.044      0.012     7.8110     91.524     33.616  32.451884     0.8614      9.083   287.7949 8.8167e+02     1.6083     -0.043     -0.062    23.3462   997.4743 0.0000e+00
     -0.042      0.015     7.7665     90.956     33.663  32.477978     0.8189      9.077   287.7001 7.4495e+02     1.5595     -0.041     -0.060    23.3316   997.4778 0.0000e+00
     -0.040      0.016     7.7123     90.284     33.703  32.501763     0.7520      9.067   287.7492 1.0683e+03     1.5431     -0.040     -0.057    23.3164   997.4814 0.0000e+00
     -0.036      0.016     7.6473     89.490     33.699  32.485609     0.7286      9.055   287.8726 1.6800e+03     1.5739     -0.036     -0.052    23.2929   997.4870 0.0000e+00
     -0.029      0.013     7.5773     88.639     33.633  32.409564     0.7443      9.044   287.9875 2.0584e+03     1.6364     -0.029     -0.041    23.2622   997.4944 0.0000e+00
     -0.022      0.010     7.5139     87.869     33.577  32.343810     0.7422      9.035   288.1059 2.1192e+03     1.6441     -0.020     -0.029    23.2327   997.5016 0.0000e+00
     -0.019      0.006     7.4657     87.283     33.567  32.325151     0.7299      9.027   288.1854 2.0795e+03     1.6008     -0.016     -0.023    23.2112   997.5068 0.0000e+00
