* Sea-Bird SBE19plus  Data File:
* FileName = C:\DATA\061719_FCR_0004.hex
* Software version 2.8.0.119 SB_Terminal.dll
* Temperature SN = 7809
* Conductivity SN = 7809
* System UpLoad Time = Jun 17 2019 17:01:19
* <ApplicationData>
* <Seaterm232>
* <SoftwareVersion>2.8.0.119</SoftwareVersion>
* <BuildDate>07-Nov-2018</BuildDate>
* </Seaterm232>
* </ApplicationData>
* cast   4 17 Jun 2019 10:51:51 samples 3378 to 4015, avg = 1, stop = mag switch
# nquan = 16
# nvalues = 585                         
# units = specified
# name 0 = depFM: Depth [fresh water, m]
# name 1 = dz/dtM: Descent Rate [m/s]
# name 2 = sbeox0Mg/L: Oxygen, SBE 43 [mg/l]
# name 3 = sbeox0PS: Oxygen, SBE 43 [% saturation]
# name 4 = specc: Specific Conductance [uS/cm]
# name 5 = c0uS/cm: Conductivity [uS/cm]
# name 6 = flECO-AFL: Fluorescence, WET Labs ECO-AFL/FL [mg/m^3]
# name 7 = ph: pH
# name 8 = orp: Oxidation Reduction Potential [mV]
# name 9 = par/sat/log: PAR/Logarithmic, Satlantic
# name 10 = turbWETntu0: Turbidity, WET Labs ECO [NTU]
# name 11 = prdM: Pressure, Strain Gauge [db]
# name 12 = prdE: Pressure, Strain Gauge [psi]
# name 13 = tv290C: Temperature [ITS-90, deg C]
# name 14 = density00: Density [density, kg/m^3]
# name 15 = flag:  0.000e+00
# span 0 =     -0.573,      2.313       
# span 1 =     -0.014,      0.096       
# span 2 =     5.3585,    10.0985       
# span 3 =     63.722,    112.636       
# span 4 =     -0.231,     37.062       
# span 5 =  -0.233805,  34.078960       
# span 6 =    -1.2222,    13.3547       
# span 7 =      6.589,     10.135       
# span 8 = -1240.7455,   347.5446       
# span 9 = 7.4153e+01, 2.1758e+03       
# span 10 =    -1.6223,    51.8379      
# span 11 =     -0.562,      2.269      
# span 12 =     -0.815,      3.291      
# span 13 =    20.3087,    25.5257      
# span 14 =   996.9126,   998.1689      
# span 15 = 0.0000e+00, 0.0000e+00      
# interval = seconds: 0.25
# start_time = Jun 17 2019 10:51:51 [Instrument's time stamp, header]
# bad_flag = -9.990e-29
# <Sensors count="9" >
#   <sensor Channel="1" >
#     <!-- Count, Temperature -->
#     <TemperatureSensor SensorID="58" >
#       <SerialNumber>7809</SerialNumber>
#       <CalibrationDate>24-Mar-19</CalibrationDate>
#       <A0>1.21792325e-003</A0>
#       <A1>2.81669265e-004</A1>
#       <A2>-1.60333336e-006</A2>
#       <A3>1.98414625e-007</A3>
#       <Slope>1.00000000</Slope>
#       <Offset>0.0000</Offset>
#     </TemperatureSensor>
#   </sensor>
#   <sensor Channel="2" >
#     <!-- Frequency 0, Conductivity -->
#     <ConductivitySensor SensorID="3" >
#       <SerialNumber>7809</SerialNumber>
#       <CalibrationDate>24-Mar-19</CalibrationDate>
#       <UseG_J>1</UseG_J>
#       <!-- Cell const and series R are applicable only for wide range sensors. -->
#       <SeriesR>0.0000</SeriesR>
#       <CellConst>2000.0000</CellConst>
#       <ConductivityType>0</ConductivityType>
#       <Coefficients equation="0" >
#         <A>0.00000000e+000</A>
#         <B>0.00000000e+000</B>
#         <C>0.00000000e+000</C>
#         <D>0.00000000e+000</D>
#         <M>0.0</M>
#         <CPcor>-9.57000000e-008</CPcor>
#       </Coefficients>
#       <Coefficients equation="1" >
#         <G>-1.00589325e+000</G>
#         <H>1.26816302e-001</H>
#         <I>-1.51560448e-004</I>
#         <J>2.67137274e-005</J>
#         <CPcor>-9.57000000e-008</CPcor>
#         <CTcor>3.2500e-006</CTcor>
#         <!-- WBOTC not applicable unless ConductivityType = 1. -->
#         <WBOTC>0.00000000e+000</WBOTC>
#       </Coefficients>
#       <Slope>1.00000000</Slope>
#       <Offset>0.00000</Offset>
#     </ConductivitySensor>
#   </sensor>
#   <sensor Channel="3" >
#     <!-- Count, Pressure, Strain Gauge -->
#     <PressureSensor SensorID="46" >
#       <SerialNumber>7809</SerialNumber>
#       <CalibrationDate>11-Mar-19</CalibrationDate>
#       <PA0>4.56561833e-002</PA0>
#       <PA1>4.85095118e-004</PA1>
#       <PA2>-2.88327090e-012</PA2>
#       <PTEMPA0>-5.48784562e+001</PTEMPA0>
#       <PTEMPA1>5.53756816e+001</PTEMPA1>
#       <PTEMPA2>-5.86727098e-001</PTEMPA2>
#       <PTCA0>5.25246745e+005</PTCA0>
#       <PTCA1>1.22304214e+001</PTCA1>
#       <PTCA2>-3.56745036e-001</PTCA2>
#       <PTCB0>2.51668750e+001</PTCB0>
#       <PTCB1>3.75000000e-004</PTCB1>
#       <PTCB2>0.00000000e+000</PTCB2>
#       <Offset>0.000000</Offset>
#     </PressureSensor>
#   </sensor>
#   <sensor Channel="4" >
#     <!-- A/D voltage 0, Oxygen, SBE 43 -->
#     <OxygenSensor SensorID="38" >
#       <SerialNumber>0434</SerialNumber>
#       <CalibrationDate>13-Apr-19</CalibrationDate>
#       <Use2007Equation>1</Use2007Equation>
#       <CalibrationCoefficients equation="0" >
#         <!-- Coefficients for Owens-Millard equation. -->
#         <Boc>0.0000</Boc>
#         <Soc>0.0000e+000</Soc>
#         <offset>0.0000</offset>
#         <Pcor>0.00e+000</Pcor>
#         <Tcor>0.0000</Tcor>
#         <Tau>0.0</Tau>
#       </CalibrationCoefficients>
#       <CalibrationCoefficients equation="1" >
#         <!-- Coefficients for Sea-Bird equation - SBE calibration in 2007 and later. -->
#         <Soc>4.2007e-001</Soc>
#         <offset>-0.6109</offset>
#         <A>-4.3656e-003</A>
#         <B> 1.7017e-004</B>
#         <C>-2.5341e-006</C>
#         <D0> 2.5826e+000</D0>
#         <D1> 1.92634e-004</D1>
#         <D2>-4.64803e-002</D2>
#         <E> 3.6000e-002</E>
#         <Tau20> 1.1800</Tau20>
#         <H1>-3.3000e-002</H1>
#         <H2> 5.0000e+003</H2>
#         <H3> 1.4500e+003</H3>
#       </CalibrationCoefficients>
#     </OxygenSensor>
#   </sensor>
#   <sensor Channel="5" >
#     <!-- A/D voltage 1, PAR/Logarithmic, Satlantic -->
#     <PARLog_SatlanticSensor SensorID="76" >
#       <SerialNumber>1122</SerialNumber>
#       <CalibrationDate>08-May-2019</CalibrationDate>
#       <a0>9.7456e-001</a0>
#       <a1>8.1640e-001</a1>
#       <Im>1.3589e+000</Im>
#       <Multiplier>1.0000e+000</Multiplier>
#     </PARLog_SatlanticSensor>
#   </sensor>
#   <sensor Channel="6" >
#     <!-- A/D voltage 2, pH -->
#     <pH_Sensor SensorID="43" >
#       <SerialNumber>0363</SerialNumber>
#       <CalibrationDate>15-Apr-19</CalibrationDate>
#       <Slope>4.5952</Slope>
#       <Offset>2.5370</Offset>
#     </pH_Sensor>
#   </sensor>
#   <sensor Channel="7" >
#     <!-- A/D voltage 3, Oxidation Reduction Potential -->
#     <OxidationReductionPotentialSensor SensorID="41" >
#       <SerialNumber>0363</SerialNumber>
#       <CalibrationDate>15-Apr-19</CalibrationDate>
#       <B>2.499480</B>
#       <M>-0.496195</M>
#       <Offset>0.0</Offset>
#     </OxidationReductionPotentialSensor>
#   </sensor>
#   <sensor Channel="8" >
#     <!-- A/D voltage 4, Fluorometer, WET Labs ECO-AFL/FL -->
#     <FluoroWetlabECO_AFL_FL_Sensor SensorID="20" >
#       <SerialNumber>FLNTURT-2496</SerialNumber>
#       <CalibrationDate>08-May-2019</CalibrationDate>
#       <ScaleFactor>5.00000000e+001</ScaleFactor>
#       <!-- Dark output -->
#       <Vblank>0.0550</Vblank>
#     </FluoroWetlabECO_AFL_FL_Sensor>
#   </sensor>
#   <sensor Channel="9" >
#     <!-- A/D voltage 5, Turbidity Meter, WET Labs, ECO-NTU -->
#     <TurbidityMeter SensorID="67" >
#       <SerialNumber>FLNTURT-2496</SerialNumber>
#       <CalibrationDate>08-May-2019</CalibrationDate>
#       <ScaleFactor>189.000000</ScaleFactor>
#       <!-- Dark output -->
#       <DarkVoltage>0.071000</DarkVoltage>
#     </TurbidityMeter>
#   </sensor>
# </Sensors>
# datcnv_date = Jun 17 2019 17:05:34, 7.26.7.129 [datcnv_vars = 15]
# datcnv_in = C:\DATA\061719_FCR_0004.hex C:\DATA\SBE19plusV2_7809.xmlcon
# datcnv_skipover = 0
# datcnv_ox_hysteresis_correction = yes
# datcnv_ox_tau_correction = yes
# filter_date = Jun 17 2019 17:06:38, 7.26.7.129
# filter_in = C:\DATA\061719_FCR_0004.cnv
# filter_low_pass_tc_A = 0.030
# filter_low_pass_tc_B = 0.150
# filter_low_pass_A_vars = prdM prdE tv290C density00
# filter_low_pass_B_vars = depFM dz/dtM sbeox0Mg/L sbeox0PS specc c0uS/cm flECO-AFL ph orp par/sat/log turbWETntu0
# alignctd_date = Jun 17 2019 17:07:04, 7.26.7.129
# alignctd_in = C:\DATA\061719_FCR_0004.cnv
# alignctd_adv = dz/dtM 1.000, sbeox0Mg/L 1.000, sbeox0PS 1.000, specc 1.000, c0uS/cm 1.000, flECO-AFL 1.000, ph 1.000, orp 1.000, turbWETntu0 1.000                                                                                 
# file_type = ascii
*END*
     -0.572 7.2580e-30     7.8173     95.519      0.703   0.710036    -0.0893      7.304 -1240.7455 1.5118e+02     0.2333     -0.561     -0.814    25.5257   996.9169 0.0000e+00
     -0.572 7.9838e-29     7.8177     95.521      0.709   0.716450    -0.0808      7.270 -1240.7455 1.6476e+02     0.2252     -0.561     -0.814    25.5246   996.9171 0.0000e+00
     -0.573 8.7822e-28     7.8182     95.526      0.675   0.682385    -0.0826      7.195 -1240.7455 1.8384e+02     0.2128     -0.562     -0.815    25.5230   996.9177 0.0000e+00
     -0.573 9.6604e-27     7.8191     95.536      0.671   0.678313    -0.0846      7.108 -1240.7455 1.9949e+02     0.2465     -0.562     -0.815    25.5219   996.9178 0.0000e+00
     -0.572 1.0626e-25     7.8200     95.546      0.660   0.667212    -0.0786      7.068 -1240.7455 2.0614e+02     0.2725     -0.561     -0.814    25.5208   996.9184 0.0000e+00
     -0.572 1.1689e-24     7.8200     95.546      0.354   0.358083    -0.0801      7.086 -1240.7455 2.0821e+02     0.2317     -0.561     -0.814    25.5198   996.9182 0.0000e+00
     -0.572 1.2858e-23     7.8202     95.544      0.170   0.171854    -0.0860      7.130 -1240.7455 2.0996e+02     0.1792     -0.562     -0.815    25.5187   996.9192 0.0000e+00
     -0.572 1.4144e-22     7.8208     95.542      0.250   0.252813    -0.0804      7.173 -1240.7455 2.1206e+02     0.0973     -0.561     -0.814    25.5176   996.9182 0.0000e+00
     -0.572 1.5558e-21     7.8218     95.540      0.383   0.386516    -0.0816      7.207 -1240.7455 2.0850e+02    -0.0702     -0.561     -0.814    25.5176   996.9204 0.0000e+00
     -0.572 1.7114e-20     7.8237     95.545      0.265   0.267701    -0.1002      7.256 -1240.7455 1.9142e+02    -0.2084     -0.562     -0.815    25.5186   996.9166 0.0000e+00
     -0.572 1.8825e-19     7.8264     95.558     -0.231  -0.233805    -0.1063      7.314 -1240.7455 1.7052e+02    -0.2625     -0.561     -0.814    25.5186   996.9126 0.0000e+00
     -0.572 2.0708e-18     7.8284     95.566      0.151   0.151661    -0.0944      7.318 -1240.7455 1.5962e+02    -0.2652     -0.561     -0.814    25.5139   996.9166 0.0000e+00
     -0.572 2.2779e-17     7.8294     95.564      0.866   0.873945    -0.0953      7.277 -1240.7455 1.5651e+02    -0.2736     -0.561     -0.814    25.5041   996.9170 0.0000e+00
     -0.572 2.5057e-16     7.8311     95.568      1.014   1.023377    -0.0997      7.231 -1240.7455 1.5628e+02    -0.2657     -0.562     -0.815    25.4927   996.9223 0.0000e+00
     -0.572 2.7562e-15     7.8334     95.578      1.062   1.071399    -0.0948      7.202 -1240.7455 1.5542e+02    -0.2024     -0.561     -0.814    25.4817   996.9223 0.0000e+00
     -0.572 3.0318e-14     7.8352     95.583      1.065   1.074404    -0.0887      7.214 -1240.7455 1.5128e+02    -0.1312     -0.561     -0.814    25.4715   996.9289 0.0000e+00
     -0.572 3.3350e-13     7.8368     95.587      1.051   1.059721    -0.0865      7.248 -1240.7455 1.4578e+02    -0.0601     -0.561     -0.814    25.4621   996.9348 0.0000e+00
     -0.572 3.6685e-12     7.8379     95.589      1.012   1.020588    -0.0948      7.271 -1240.7455 1.3899e+02    -0.0307     -0.561     -0.813    25.4522   996.9353 0.0000e+00
     -0.572 4.0354e-11     7.8388     95.590      0.973   0.981404    -0.0938      7.277 -1240.7455 1.3371e+02    -0.0059     -0.561     -0.813    25.4419   996.9393 0.0000e+00
     -0.572 4.4389e-10     7.8398     95.594      0.958   0.966105    -0.0827      7.271 -1240.7455 1.3674e+02    -0.0221     -0.561     -0.813    25.4323   996.9410 0.0000e+00
     -0.572 4.8828e-09     7.8402     95.591      0.954   0.962334    -0.0897      7.260 -1240.7452 1.5513e+02    -0.1608     -0.561     -0.813    25.4232   996.9438 0.0000e+00
     -0.572 5.3711e-08     7.8388     95.567      0.928   0.935809    -0.1009      7.227 -1240.7422 2.6634e+02    -0.2412     -0.561     -0.813    25.4158   996.9454 0.0000e+00
     -0.572 5.9082e-07     7.8374     95.545      0.892   0.898830    -0.0970      6.963 -1240.7097 5.8903e+02    -0.2075     -0.561     -0.813    25.4106   996.9470 0.0000e+00
     -0.572      0.000     7.8377     95.546      0.888   0.895387    -0.0945      6.589 -1240.3522 7.5707e+02    -0.2448     -0.561     -0.813    25.4063   996.9479 0.0000e+00
     -0.572      0.000     7.8380     95.548      0.888   0.894183    -0.0790      6.642 -1236.4195 4.8769e+02    -0.6268     -0.561     -0.813    25.4021   996.9491 0.0000e+00
     -0.572      0.001     7.8380     95.545      0.878   0.884263    -0.0404      7.017 -1193.1600 2.6047e+02    -1.2538     -0.561     -0.813    25.3984   996.9501 0.0000e+00
     -0.572      0.004     7.8427     95.551      0.896   0.902172    -0.0176      7.331  -717.3047 2.4589e+02    -1.5990     -0.562     -0.814    25.3953   996.9509 0.0000e+00
     -0.572      0.010     7.8595     95.573      1.234   1.237435    -0.0292      7.573    64.7465 2.4752e+02    -1.6223     -0.561     -0.814    25.3940   996.9513 0.0000e+00
     -0.572      0.022     7.8868     95.604      5.327   5.318050    -0.1202      7.833   347.5446 2.8310e+02    -1.3384     -0.562     -0.814    25.3929   996.9516 0.0000e+00
     -0.569      0.038     7.9141     95.629     14.985  14.935581    -0.2674      8.165   274.2140 3.4363e+02    -0.7879     -0.560     -0.812    25.3946   996.9511 0.0000e+00
     -0.559      0.058     7.9355     95.645     25.094  24.968245    -0.3350      8.520   263.5833 3.5546e+02    -0.4729     -0.549     -0.798    25.3943   996.9513 0.0000e+00
     -0.543      0.076     7.9513     95.658     31.264  31.057848    -0.3480      8.829   265.6425 3.5584e+02    -0.4130     -0.537     -0.779    25.2915   996.9777 0.0000e+00
     -0.517      0.090     7.9630     95.664     33.384  33.117949    -0.5724      9.070   271.4071 4.5733e+02    -0.0637     -0.511     -0.741    25.0823   997.0323 0.0000e+00
     -0.484      0.096     7.9726     95.662     33.564  33.252803    -0.9932      9.238   276.5829 7.0408e+02     0.5713     -0.473     -0.686    24.8980   997.0826 0.0000e+00
     -0.452      0.094     7.9821     95.659     33.552  33.195983    -1.2222      9.327   277.8898 8.6231e+02     1.0049     -0.442     -0.641    24.7596   997.1211 0.0000e+00
     -0.425      0.089     7.9930     95.663     33.532  33.128960    -1.2081      9.383   277.9155 7.2787e+02     2.1967     -0.415     -0.602    24.6639   997.1474 0.0000e+00
     -0.405      0.084     8.0043     95.661     33.531  33.076979    -0.8316      9.484   278.8740 5.4416e+02    14.8827     -0.393     -0.570    24.5956   997.1651 0.0000e+00
     -0.393      0.079     8.0137     95.643     33.515  33.011630    -0.1463      9.624   278.5518 4.5867e+02    38.1143     -0.385     -0.558    24.5290   997.1818 0.0000e+00
     -0.380      0.077     8.0221     95.630     33.519  32.973370     0.2279      9.749   279.0956 4.5713e+02    50.7983     -0.378     -0.548    24.4672   997.1974 0.0000e+00
     -0.360      0.078     8.0306     95.635     33.578  32.995081     0.2773      9.839   281.8352 8.0421e+02    51.8379     -0.354     -0.513    24.3971   997.2150 0.0000e+00
     -0.335      0.079     8.0396     95.654     33.638  33.020241     0.3036      9.905   283.8000 1.4524e+03    50.7494     -0.327     -0.474    24.3152   997.2357 0.0000e+00
     -0.310      0.075     8.0506     95.709     33.670  33.023687     0.4153      9.955   285.2140 1.8084e+03    38.2264     -0.304     -0.441    24.2389   997.2547 0.0000e+00
     -0.287      0.065     8.0641     95.809     33.707  33.036706     0.6218     10.000   286.7134 1.6177e+03    15.2899     -0.280     -0.405    24.1780   997.2700 0.0000e+00
     -0.269      0.050     8.0769     95.914     33.739  33.050699     0.7378     10.049   287.3880 1.0857e+03     2.7674     -0.259     -0.377    24.1243   997.2834 0.0000e+00
     -0.259      0.036     8.0861     95.989     33.768  33.065926     0.7601     10.092   287.1761 6.1517e+02     1.6517     -0.250     -0.363    24.0746   997.2958 0.0000e+00
     -0.257      0.028     8.0919     96.039     33.803  33.093875     0.7879     10.121   286.5609 5.4627e+02     1.5706     -0.249     -0.361    24.0308   997.3067 0.0000e+00
     -0.259      0.024     8.0979     96.114     33.844  33.134778     0.8046     10.133   286.4024 6.4365e+02     1.5571     -0.255     -0.370    23.9967   997.3150 0.0000e+00
     -0.259      0.024     8.1038     96.219     33.876  33.179710     0.8061     10.132   287.2381 5.7691e+02     1.5873     -0.258     -0.373    23.9733   997.3208 0.0000e+00
     -0.249      0.024     8.1059     96.320     33.861  33.192934     0.8142     10.132   288.6640 6.9073e+02     1.6406     -0.248     -0.359    23.9515   997.3262 0.0000e+00
     -0.234      0.022     8.1058     96.405     33.802  33.167785     0.8165     10.135   289.6190 1.2102e+03     1.7097     -0.230     -0.332    23.9412   997.3289 0.0000e+00
     -0.222      0.018     8.1048     96.459     33.738  33.129530     0.8072     10.133   289.8371 1.6698e+03     1.8004     -0.214     -0.310    23.9413   997.3289 0.0000e+00
     -0.217      0.013     8.1030     96.475     33.705  33.111191     0.8066     10.125   290.0959 1.8805e+03     1.8523     -0.211     -0.305    23.9541   997.3258 0.0000e+00
     -0.221      0.008     8.1010     96.465     33.725  33.136466     0.8088     10.113   290.4253 2.0170e+03     1.8781     -0.216     -0.313    24.0060   997.3130 0.0000e+00
     -0.227      0.003     8.0988     96.446     33.768  33.181284     0.8077     10.100   290.4637 2.1045e+03     1.9158     -0.224     -0.325    24.0625   997.2989 0.0000e+00
     -0.230      0.002     8.0952     96.426     33.787  33.208855     0.8107     10.088   290.5607 2.1277e+03     1.9147     -0.229     -0.332    24.0979   997.2902 0.0000e+00
     -0.226      0.004     8.0897     96.407     33.777  33.215989     0.8100     10.074   291.0819 2.1014e+03     1.8654     -0.223     -0.324    24.1178   997.2853 0.0000e+00
     -0.220      0.006     8.0845     96.392     33.747  33.204099     0.8075     10.053   291.9470 2.0489e+03     1.8441     -0.214     -0.311    24.1234   997.2839 0.0000e+00
     -0.216      0.006     8.0815     96.381     33.725  33.192047     0.8073     10.028   292.7606 2.0155e+03     1.8856     -0.210     -0.305    24.1207   997.2847 0.0000e+00
     -0.215      0.002     8.0800     96.368     33.729  33.197202     0.8073     10.010   293.0904 2.0124e+03     1.9420     -0.211     -0.304    24.1305   997.2822 0.0000e+00
     -0.215     -0.002     8.0799     96.354     33.740  33.202972     0.8076      9.999   293.0093 2.0091e+03     1.9358     -0.211     -0.306    24.1649   997.2736 0.0000e+00
     -0.217     -0.005     8.0793     96.321     33.745  33.198351     0.8027      9.992   292.8978 2.0035e+03     1.8760     -0.212     -0.309    24.1948   997.2661 0.0000e+00
     -0.221     -0.006     8.0758     96.249     33.762  33.204776     0.8079      9.985   293.0331 2.0068e+03     1.8410     -0.217     -0.315    24.2080   997.2629 0.0000e+00
     -0.225     -0.005     8.0716     96.170     33.786  33.217181     0.8180      9.977   293.4406 2.0255e+03     1.8407     -0.222     -0.322    24.2093   997.2625 0.0000e+00
