* Sea-Bird SBE19plus  Data File:
* FileName = C:\DATA\070119_fcr_0007.hex
* Software version 2.8.0.119 SB_Terminal.dll
* Temperature SN = 7809
* Conductivity SN = 7809
* System UpLoad Time = Jul 01 2019 16:58:58
* <ApplicationData>
* <Seaterm232>
* <SoftwareVersion>2.8.0.119</SoftwareVersion>
* <BuildDate>07-Nov-2018</BuildDate>
* </Seaterm232>
* </ApplicationData>
* cast   7 01 Jul 2019 11:34:52 samples 11501 to 11911, avg = 1, stop = mag switch
# nquan = 16
# nvalues = 357                         
# units = specified
# name 0 = depFM: Depth [fresh water, m]
# name 1 = dz/dtM: Descent Rate [m/s]
# name 2 = sbeox0Mg/L: Oxygen, SBE 43 [mg/l]
# name 3 = sbeox0PS: Oxygen, SBE 43 [% saturation]
# name 4 = specc: Specific Conductance [uS/cm]
# name 5 = c0uS/cm: Conductivity [uS/cm]
# name 6 = flECO-AFL: Fluorescence, WET Labs ECO-AFL/FL [mg/m^3]
# name 7 = ph: pH
# name 8 = orp: Oxidation Reduction Potential [mV]
# name 9 = par/sat/log: PAR/Logarithmic, Satlantic
# name 10 = turbWETntu0: Turbidity, WET Labs ECO [NTU]
# name 11 = prdM: Pressure, Strain Gauge [db]
# name 12 = prdE: Pressure, Strain Gauge [psi]
# name 13 = tv290C: Temperature [ITS-90, deg C]
# name 14 = density00: Density [density, kg/m^3]
# name 15 = flag:  0.000e+00
# span 0 =     -0.574,      3.610       
# span 1 =     -0.243,      0.246       
# span 2 =    -0.8747,    13.9979       
# span 3 =     -8.924,    158.783       
# span 4 =      2.038,    325.875       
# span 5 =   2.050180, 260.799016       
# span 6 =    -0.1201,     5.9017       
# span 7 =      6.910,      9.393       
# span 8 =   123.6246,  1240.2295       
# span 9 = 1.4073e+01, 1.8776e+03       
# span 10 =    -1.3948,   138.0554      
# span 11 =     -0.563,      3.542      
# span 12 =     -0.817,      5.136      
# span 13 =    14.8539,    26.6503      
# span 14 =   996.6284,   999.2591      
# span 15 = 0.0000e+00, 0.0000e+00      
# interval = seconds: 0.25
# start_time = Jul 01 2019 11:34:52 [Instrument's time stamp, header]
# bad_flag = -9.990e-29
# <Sensors count="9" >
#   <sensor Channel="1" >
#     <!-- Count, Temperature -->
#     <TemperatureSensor SensorID="58" >
#       <SerialNumber>7809</SerialNumber>
#       <CalibrationDate>24-Mar-19</CalibrationDate>
#       <A0>1.21792325e-003</A0>
#       <A1>2.81669265e-004</A1>
#       <A2>-1.60333336e-006</A2>
#       <A3>1.98414625e-007</A3>
#       <Slope>1.00000000</Slope>
#       <Offset>0.0000</Offset>
#     </TemperatureSensor>
#   </sensor>
#   <sensor Channel="2" >
#     <!-- Frequency 0, Conductivity -->
#     <ConductivitySensor SensorID="3" >
#       <SerialNumber>7809</SerialNumber>
#       <CalibrationDate>24-Mar-19</CalibrationDate>
#       <UseG_J>1</UseG_J>
#       <!-- Cell const and series R are applicable only for wide range sensors. -->
#       <SeriesR>0.0000</SeriesR>
#       <CellConst>2000.0000</CellConst>
#       <ConductivityType>0</ConductivityType>
#       <Coefficients equation="0" >
#         <A>0.00000000e+000</A>
#         <B>0.00000000e+000</B>
#         <C>0.00000000e+000</C>
#         <D>0.00000000e+000</D>
#         <M>0.0</M>
#         <CPcor>-9.57000000e-008</CPcor>
#       </Coefficients>
#       <Coefficients equation="1" >
#         <G>-1.00589325e+000</G>
#         <H>1.26816302e-001</H>
#         <I>-1.51560448e-004</I>
#         <J>2.67137274e-005</J>
#         <CPcor>-9.57000000e-008</CPcor>
#         <CTcor>3.2500e-006</CTcor>
#         <!-- WBOTC not applicable unless ConductivityType = 1. -->
#         <WBOTC>0.00000000e+000</WBOTC>
#       </Coefficients>
#       <Slope>1.00000000</Slope>
#       <Offset>0.00000</Offset>
#     </ConductivitySensor>
#   </sensor>
#   <sensor Channel="3" >
#     <!-- Count, Pressure, Strain Gauge -->
#     <PressureSensor SensorID="46" >
#       <SerialNumber>7809</SerialNumber>
#       <CalibrationDate>11-Mar-19</CalibrationDate>
#       <PA0>4.56561833e-002</PA0>
#       <PA1>4.85095118e-004</PA1>
#       <PA2>-2.88327090e-012</PA2>
#       <PTEMPA0>-5.48784562e+001</PTEMPA0>
#       <PTEMPA1>5.53756816e+001</PTEMPA1>
#       <PTEMPA2>-5.86727098e-001</PTEMPA2>
#       <PTCA0>5.25246745e+005</PTCA0>
#       <PTCA1>1.22304214e+001</PTCA1>
#       <PTCA2>-3.56745036e-001</PTCA2>
#       <PTCB0>2.51668750e+001</PTCB0>
#       <PTCB1>3.75000000e-004</PTCB1>
#       <PTCB2>0.00000000e+000</PTCB2>
#       <Offset>0.000000</Offset>
#     </PressureSensor>
#   </sensor>
#   <sensor Channel="4" >
#     <!-- A/D voltage 0, Oxygen, SBE 43 -->
#     <OxygenSensor SensorID="38" >
#       <SerialNumber>0434</SerialNumber>
#       <CalibrationDate>13-Apr-19</CalibrationDate>
#       <Use2007Equation>1</Use2007Equation>
#       <CalibrationCoefficients equation="0" >
#         <!-- Coefficients for Owens-Millard equation. -->
#         <Boc>0.0000</Boc>
#         <Soc>0.0000e+000</Soc>
#         <offset>0.0000</offset>
#         <Pcor>0.00e+000</Pcor>
#         <Tcor>0.0000</Tcor>
#         <Tau>0.0</Tau>
#       </CalibrationCoefficients>
#       <CalibrationCoefficients equation="1" >
#         <!-- Coefficients for Sea-Bird equation - SBE calibration in 2007 and later. -->
#         <Soc>4.2007e-001</Soc>
#         <offset>-0.6109</offset>
#         <A>-4.3656e-003</A>
#         <B> 1.7017e-004</B>
#         <C>-2.5341e-006</C>
#         <D0> 2.5826e+000</D0>
#         <D1> 1.92634e-004</D1>
#         <D2>-4.64803e-002</D2>
#         <E> 3.6000e-002</E>
#         <Tau20> 1.1800</Tau20>
#         <H1>-3.3000e-002</H1>
#         <H2> 5.0000e+003</H2>
#         <H3> 1.4500e+003</H3>
#       </CalibrationCoefficients>
#     </OxygenSensor>
#   </sensor>
#   <sensor Channel="5" >
#     <!-- A/D voltage 1, PAR/Logarithmic, Satlantic -->
#     <PARLog_SatlanticSensor SensorID="76" >
#       <SerialNumber>1122</SerialNumber>
#       <CalibrationDate>08-May-2019</CalibrationDate>
#       <a0>9.7456e-001</a0>
#       <a1>8.1640e-001</a1>
#       <Im>1.3589e+000</Im>
#       <Multiplier>1.0000e+000</Multiplier>
#     </PARLog_SatlanticSensor>
#   </sensor>
#   <sensor Channel="6" >
#     <!-- A/D voltage 2, pH -->
#     <pH_Sensor SensorID="43" >
#       <SerialNumber>0363</SerialNumber>
#       <CalibrationDate>15-Apr-19</CalibrationDate>
#       <Slope>4.5952</Slope>
#       <Offset>2.5370</Offset>
#     </pH_Sensor>
#   </sensor>
#   <sensor Channel="7" >
#     <!-- A/D voltage 3, Oxidation Reduction Potential -->
#     <OxidationReductionPotentialSensor SensorID="41" >
#       <SerialNumber>0363</SerialNumber>
#       <CalibrationDate>15-Apr-19</CalibrationDate>
#       <B>2.499480</B>
#       <M>-0.496195</M>
#       <Offset>0.0</Offset>
#     </OxidationReductionPotentialSensor>
#   </sensor>
#   <sensor Channel="8" >
#     <!-- A/D voltage 4, Fluorometer, WET Labs ECO-AFL/FL -->
#     <FluoroWetlabECO_AFL_FL_Sensor SensorID="20" >
#       <SerialNumber>FLNTURT-2496</SerialNumber>
#       <CalibrationDate>08-May-2019</CalibrationDate>
#       <ScaleFactor>5.00000000e+001</ScaleFactor>
#       <!-- Dark output -->
#       <Vblank>0.0550</Vblank>
#     </FluoroWetlabECO_AFL_FL_Sensor>
#   </sensor>
#   <sensor Channel="9" >
#     <!-- A/D voltage 5, Turbidity Meter, WET Labs, ECO-NTU -->
#     <TurbidityMeter SensorID="67" >
#       <SerialNumber>FLNTURT-2496</SerialNumber>
#       <CalibrationDate>08-May-2019</CalibrationDate>
#       <ScaleFactor>189.000000</ScaleFactor>
#       <!-- Dark output -->
#       <DarkVoltage>0.071000</DarkVoltage>
#     </TurbidityMeter>
#   </sensor>
# </Sensors>
# datcnv_date = Jul 01 2019 17:02:30, 7.26.7.129 [datcnv_vars = 15]
# datcnv_in = C:\DATA\070119_fcr_0007.hex C:\DATA\SBE19plusV2_7809.xmlcon
# datcnv_skipover = 0
# datcnv_ox_hysteresis_correction = yes
# datcnv_ox_tau_correction = yes
# filter_date = Jul 01 2019 17:02:54, 7.26.7.129
# filter_in = C:\DATA\070119_fcr_0007.cnv
# filter_low_pass_tc_A = 0.030
# filter_low_pass_tc_B = 0.150
# filter_low_pass_A_vars = prdM prdE tv290C density00
# filter_low_pass_B_vars = depFM dz/dtM sbeox0Mg/L sbeox0PS specc c0uS/cm flECO-AFL ph orp par/sat/log turbWETntu0
# alignctd_date = Jul 01 2019 17:03:11, 7.26.7.129
# alignctd_in = C:\DATA\070119_fcr_0007.cnv
# alignctd_adv = dz/dtM 1.000, sbeox0Mg/L 1.000, sbeox0PS 1.000, specc 1.000, c0uS/cm 1.000, flECO-AFL 1.000, ph 1.000, orp 1.000, turbWETntu0 1.000                                                                                 
# file_type = ascii
*END*
     -0.574 1.5440e-13     6.8365     83.189      2.038   2.050180    -0.0557      6.910  1240.2295 6.7907e+02     0.1204     -0.563     -0.816    25.2922   996.9777 0.0000e+00
     -0.574 1.6984e-12     6.8335     83.154      2.294   2.307979    -0.0392      6.911  1240.2295 8.3043e+02     0.1655     -0.562     -0.815    25.2930   996.9775 0.0000e+00
     -0.574 1.8683e-11     6.8311     83.126      2.407   2.420604    -0.0274      6.911  1240.2295 8.8495e+02     0.1874     -0.563     -0.816    25.2935   996.9773 0.0000e+00
     -0.574 2.0551e-10     6.8312     83.129      2.447   2.461457    -0.0432      6.911  1240.2295 8.0170e+02     0.1554     -0.563     -0.817    25.2938   996.9772 0.0000e+00
     -0.574 2.2606e-09     6.8332     83.155      2.407   2.421738    -0.0835      6.913  1240.2295 7.0724e+02     0.1404     -0.562     -0.815    25.2949   996.9770 0.0000e+00
     -0.574 2.4867e-08     6.8363     83.194      2.307   2.320553    -0.1070      6.913  1240.2293 6.2412e+02     0.1699     -0.563     -0.816    25.2960   996.9767 0.0000e+00
     -0.574 2.7353e-07     6.8397     83.236      2.175   2.188502    -0.1097      6.911  1240.2276 5.5975e+02     0.1513     -0.563     -0.817    25.2968   996.9766 0.0000e+00
     -0.574      0.000     6.8434     83.282      2.080   2.092387    -0.1079      6.911  1240.2091 5.3902e+02    -0.0521     -0.562     -0.815    25.2977   996.9764 0.0000e+00
     -0.574      0.000     6.8467     83.323      2.096   2.108893    -0.1033      6.914  1240.0047 5.2537e+02    -0.3563     -0.563     -0.816    25.2981   996.9762 0.0000e+00
     -0.574      0.000     6.8493     83.356      2.373   2.388080    -0.1055      6.926  1237.7571 5.1619e+02    -0.5121     -0.563     -0.816    25.2993   996.9759 0.0000e+00
     -0.574      0.004     6.8512     83.391      5.178   5.214558    -0.1169      7.011  1213.0327 6.0947e+02    -0.5581     -0.562     -0.815    25.2995   996.9757 0.0000e+00
     -0.574      0.019     6.8445     83.417     15.283  15.432273    -0.1201      7.250   941.0645 8.0577e+02    -0.7814     -0.562     -0.816    25.3013   996.9754 0.0000e+00
     -0.574      0.050     6.8169     83.418     28.653  29.042621    -0.1087      7.619   447.7352 1.0206e+03    -1.1813     -0.562     -0.816    25.3000   996.9756 0.0000e+00
     -0.573      0.090     6.7738     83.398     35.156  35.826769    -0.0922      8.033   186.9689 1.2512e+03    -1.3948     -0.563     -0.816    25.3028   996.9751 0.0000e+00
     -0.558      0.134     6.7340     83.368     35.797  36.689161    -0.0587      8.425   167.4049 1.4553e+03    -1.2328     -0.562     -0.814    25.2989   996.9757 0.0000e+00
     -0.512      0.176     6.7064     83.343     35.702  36.740840     0.2787      8.748   164.4696 1.6068e+03     0.7456     -0.515     -0.747    25.3098   996.9758 0.0000e+00
     -0.438      0.212     6.6947     83.388     35.581  36.705720     0.9087      8.988   157.7592 1.6992e+03     4.3697     -0.424     -0.615    25.5455   996.9207 0.0000e+00
     -0.365      0.234     6.7017     83.561     35.483  36.645495     1.2558      9.149   142.9712 1.5501e+03     6.3407     -0.352     -0.512    25.9608   996.8129 0.0000e+00
     -0.302      0.238     6.7234     83.843     35.418  36.583980     1.2943      9.245   141.5713 1.3591e+03     6.3879     -0.298     -0.432    26.2755   996.7287 0.0000e+00
     -0.239      0.225     6.7554     84.209     35.383  36.533194     1.3562      9.307   154.9443 1.4009e+03     5.3005     -0.232     -0.337    26.4760   996.6751 0.0000e+00
     -0.179      0.207     6.7933     84.637     35.348  36.475718     1.4582      9.350   154.8686 1.2039e+03     3.3521     -0.171     -0.248    26.5997   996.6417 0.0000e+00
     -0.131      0.197     6.8331     85.088     35.292  36.396779     1.5128      9.373   148.4861 7.9296e+02     2.2969     -0.124     -0.181    26.6503   996.6284 0.0000e+00
     -0.093      0.192     6.8745     85.558     35.258  36.340372     1.5226      9.383   156.2412 7.0514e+02     2.2098     -0.090     -0.129    26.6492   996.6287 0.0000e+00
     -0.056      0.187     6.9183     86.047     35.244  36.301439     1.5323      9.391   164.4881 7.5296e+02     2.2008     -0.061     -0.089    26.6192   996.6371 0.0000e+00
     -0.007      0.182     6.9620     86.533     35.213  36.243349     1.6039      9.393   165.1709 7.4438e+02     2.1876     -0.013     -0.018    26.5878   996.6457 0.0000e+00
      0.053      0.174     7.0014     86.981     35.198  36.209216     1.7386      9.383   165.0133 1.1458e+03     2.2140      0.055      0.081    26.5587   996.6538 0.0000e+00
      0.108      0.159     7.0357     87.382     35.207  36.206074     1.8173      9.366   164.3888 1.7471e+03     2.2575      0.110      0.159    26.5330   996.6611 0.0000e+00
      0.149      0.135     7.0662     87.735     35.217  36.205337     1.8272      9.347   156.9322 1.6599e+03     2.2552      0.149      0.217    26.4951   996.6715 0.0000e+00
      0.178      0.106     7.0929     88.030     35.228  36.200291     1.8234      9.327   142.4829 1.0973e+03     2.1870      0.178      0.260    26.4526   996.6831 0.0000e+00
      0.197      0.077     7.1209     88.336     35.253  36.208504     1.8238      9.307   133.7130 8.0030e+02     2.0885      0.197      0.286    26.4261   996.6904 0.0000e+00
      0.205      0.053     7.1562     88.740     35.300  36.241143     1.8326      9.287   135.2153 8.4227e+02     2.0468      0.204      0.296    26.4132   996.6939 0.0000e+00
      0.210      0.036     7.2037     89.304     35.346  36.277543     1.8343      9.267   137.8473 9.7007e+02     2.0431      0.203      0.295    26.4009   996.6972 0.0000e+00
      0.217      0.026     7.2675     90.076     35.406  36.331243     1.8096      9.249   134.0454 9.6948e+02     2.0112      0.212      0.307    26.3759   996.7039 0.0000e+00
      0.225      0.023     7.3403     90.962     35.463  36.382645     1.7761      9.232   129.3412 8.5950e+02     1.9883      0.223      0.323    26.3464   996.7119 0.0000e+00
      0.230      0.023     7.4117     91.837     35.475  36.391262     1.7674      9.213   128.5491 8.9785e+02     1.9960      0.227      0.329    26.3260   996.7174 0.0000e+00
      0.232      0.023     7.4795     92.672     35.458  36.371957     1.7736      9.192   128.4251 1.0932e+03     2.0065      0.227      0.329    26.3114   996.7214 0.0000e+00
      0.236      0.021     7.5350     93.360     35.427  36.339637     1.7646      9.175   127.1540 1.1477e+03     1.9840      0.229      0.332    26.2997   996.7246 0.0000e+00
      0.245      0.017     7.5649     93.731     35.405  36.317842     1.7284      9.164   125.9145 1.0830e+03     1.9535      0.240      0.348    26.2899   996.7273 0.0000e+00
      0.254      0.017     7.5686     93.777     35.387  36.298848     1.7001      9.157   125.3972 1.1505e+03     1.9978      0.253      0.365    26.2830   996.7291 0.0000e+00
      0.258      0.021     7.5549     93.607     35.327  36.236921     1.7006      9.151   125.0297 1.2328e+03     2.0610      0.255      0.369    26.2814   996.7296 0.0000e+00
      0.255      0.026     7.5299     93.293     35.234  36.140324     1.7082      9.141   124.7400 1.3433e+03     2.0621      0.250      0.362    26.2822   996.7294 0.0000e+00
      0.255      0.029     7.4998     92.916     35.180  36.082958     1.7138      9.130   124.4755 1.3900e+03     2.0113      0.246      0.356    26.2828   996.7292 0.0000e+00
      0.264      0.030     7.4720     92.569     35.211  36.114543     1.7162      9.123   124.2410 1.1463e+03     1.9712      0.255      0.370    26.2835   996.7290 0.0000e+00
      0.283      0.029     7.4514     92.310     35.301  36.204854     1.7107      9.118   124.1425 1.0128e+03     2.0022      0.279      0.405    26.2828   996.7293 0.0000e+00
      0.301      0.025     7.4401     92.165     35.382  36.286322     1.7075      9.113   124.1444 1.0671e+03     2.0263      0.301      0.436    26.2793   996.7302 0.0000e+00
      0.307      0.019     7.4322     92.060     35.435  36.337920     1.7554      9.111   124.0064 1.0510e+03     2.0001      0.305      0.441    26.2764   996.7310 0.0000e+00
      0.302      0.011     7.4147     91.838     35.483  36.384413     1.8390      9.111   123.8500 1.0465e+03     1.9801      0.296      0.428    26.2764   996.7311 0.0000e+00
      0.297      0.004     7.3775     91.376     35.503  36.404163     1.8776      9.110   123.8026 1.0811e+03     1.9484      0.290      0.420    26.2752   996.7313 0.0000e+00
      0.295      0.003     7.3195     90.657     35.486  36.386299     1.8841      9.105   123.6915 1.0817e+03     1.9447      0.288      0.418    26.2711   996.7325 0.0000e+00
      0.297      0.007     7.2481     89.772     35.459  36.358835     1.8572      9.095   123.6246 1.0495e+03     2.0009      0.291      0.422    26.2659   996.7338 0.0000e+00
      0.301      0.012     7.1949     89.112     35.427  36.325989     1.7779      9.083   123.7687 1.0055e+03     2.0388      0.294      0.426    26.2631   996.7346 0.0000e+00
      0.306      0.016     7.1925     89.085     35.408  36.306505     1.7149      9.068   123.8851 1.0251e+03     2.0416      0.299      0.434    26.2633   996.7347 0.0000e+00
      0.312      0.016     7.2365     89.632     35.414  36.313680     1.6930      9.054   123.8274 1.1292e+03     2.0352      0.307      0.446    26.2633   996.7346 0.0000e+00
      0.317      0.012     7.3083     90.522     35.449  36.349275     1.6949      9.041   123.7590 1.2323e+03     2.0601      0.312      0.453    26.2627   996.7348 0.0000e+00
      0.322      0.007     7.3855     91.480     35.516  36.419530     1.7036      9.030   123.7461 1.3120e+03     2.0805      0.316      0.458    26.2615   996.7352 0.0000e+00
      0.324      0.003     7.4490     92.265     35.561  36.464930     1.7031      9.017   123.8444 1.3986e+03     2.0524      0.320      0.465    26.2620   996.7351 0.0000e+00
      0.321      0.002     7.4889     92.754     35.553  36.453909     1.7061      9.000   124.0866 1.3602e+03     2.0151      0.317      0.460    26.2636   996.7347 0.0000e+00
      0.316      0.003     7.4912     92.774     35.517  36.413215     1.7221      8.981   124.3515 1.1371e+03     1.9897      0.308      0.446    26.2641   996.7345 0.0000e+00
      0.313      0.004     7.4478     92.224     35.463  36.353724     1.7496      8.965   124.6379 9.8770e+02     2.0082      0.304      0.441    26.2650   996.7342 0.0000e+00
      0.318      0.006     7.3704     91.256     35.420  36.305839     1.7694      8.953   124.8823 9.9251e+02     2.0414      0.311      0.451    26.2654   996.7343 0.0000e+00
      0.326      0.008     7.2846     90.186     35.397  36.278534     1.7706      8.942   125.0701 1.0184e+03     2.0307      0.321      0.466    26.2625   996.7350 0.0000e+00
      0.331      0.008     7.2177     89.351     35.399  36.277451     1.7806      8.932   125.3591 9.9856e+02     2.0101      0.325      0.472    26.2567   996.7365 0.0000e+00
      0.332      0.006     7.1883     88.981     35.417  36.292742     1.8037      8.922   125.6238 9.6865e+02     2.0222      0.325      0.472    26.2493   996.7384 0.0000e+00
