* Sea-Bird SBE19plus  Data File:
* FileName = C:\DATA\072219_fcr50_0001.hex
* Software version 2.8.0.119
* Temperature SN = 7809
* Conductivity SN = 7809
* System UpLoad Time = Jul 23 2019 10:43:31
* <ApplicationData>
* <Seaterm232>
* <SoftwareVersion>2.8.0.119</SoftwareVersion>
* <BuildDate>07-Nov-2018</BuildDate>
* </Seaterm232>
* </ApplicationData>
* <InstrumentState>
* <HardwareData DeviceType='SBE19plus' SerialNumber='01907809'>
*
*    <Manufacturer>Sea-Bird Electronics, Inc.</Manufacturer>
*
*    <FirmwareVersion>3.1.8</FirmwareVersion>
*
*    <FirmwareDate>Mar  9 2016 16:22:29</FirmwareDate>
*
*    <CommandSetVersion>1.4</CommandSetVersion>
*
*    <PCBAssembly PCBSerialNum='120721' AssemblyNum='41054J'/>
*
*    <PCBAssembly PCBSerialNum='120715' AssemblyNum='41967A'/>
*
*    <PCBAssembly PCBSerialNum='116699' AssemblyNum='41606'/>
*
*    <PCBAssembly PCBSerialNum='120719' AssemblyNum='41059D'/>
*
*    <MfgDate>28-Apr-2017</MfgDate>
*
*    <InternalSensors>
*
*       <Sensor id='Main Temperature'>
*
*          <type>temperature0</type>
*
*          <SerialNumber>01907809</SerialNumber>
*
*       </Sensor>
*
*       <Sensor id='Main Conductivity'>
*
*          <type>conductivity-0</type>
*
*          <SerialNumber>01907809</SerialNumber>
*
*       </Sensor>
*
*       <Sensor id='Main Pressure'>
*
*          <type>strain-0</type>
*
*          <SerialNumber>10586018</SerialNumber>
*
*       </Sensor>
*
*    </InternalSensors>
*
*    <ExternalSensors>
*
*       <Sensor id='volt 0'>
*
*          <type>pH</type>
*
*          <SerialNumber>27-0363</SerialNumber>
*
*       </Sensor>
*
*       <Sensor id='volt 1'>
*
*          <type>ORP</type>
*
*          <SerialNumber>27-0363</SerialNumber>
*
*       </Sensor>
*
*       <Sensor id='volt 2'>
*
*          <type>OXY</type>
*
*          <SerialNumber>43-0434</SerialNumber>
*
*       </Sensor>
*
*       <Sensor id='volt 3'>
*
*          <type>PAR</type>
*
*          <SerialNumber>1122</SerialNumber>
*
*       </Sensor>
*
*       <Sensor id='volt 4'>
*
*          <type>ECO AFL/FL</type>
*
*          <SerialNumber>FLNTURT-2496</SerialNumber>
*
*       </Sensor>
*
*       <Sensor id='volt 5'>
*
*          <type>ECO-NTU</type>
*
*          <SerialNumber>FLNTURT-2496</SerialNumber>
*
*       </Sensor>
*
*       <Sensor id='serial'>
*
*          <type>not assigned</type>
*
*          <SerialNumber>not assigned</SerialNumber>
*
*       </Sensor>
*
*    </ExternalSensors>
*
* </HardwareData>
* <StatusData DeviceType='SBE19plus' SerialNumber='01907809'>
*
*    <DateTime>2019-07-23T10:42:27</DateTime>
*
*    <LoggingState>not logging</LoggingState>
*
*    <EventSummary numEvents='0'/>
*
*    <Power>
*
*       <vMain>12.8</vMain>
*
*       <vLith>8.6</vLith>
*
*       <iMain>63.1</iMain>
*
*       <iPump>45.8</iPump>
*
*       <iExt01>20.3</iExt01>
*
*       <iExt2345>36.7</iExt2345>
*
*    </Power>
*
*    <MemorySummary>
*
*       <Bytes>60789</Bytes>
*
*       <Samples>2643</Samples>
*
*       <SamplesFree>2858145</SamplesFree>
*
*       <SampleLength>23</SampleLength>
*
*       <Profiles>5</Profiles>
*
*    </MemorySummary>
*
* </StatusData>
* <ConfigurationData DeviceType='SBE19plus' SerialNumber='01907809'>
*
*    <ProfileMode>
*
*       <ScansToAverage>1</ScansToAverage>
*
*       <MinimumCondFreq>5</MinimumCondFreq>
*
*       <PumpDelay>45</PumpDelay>
*
*       <AutoRun>no</AutoRun>
*
*       <IgnoreSwitch>no</IgnoreSwitch>
*
*    </ProfileMode>
*
*    <Battery>
*
*       <Type>alkaline</Type>
*
*       <CutOff>7.5</CutOff>
*
*    </Battery>
*
*    <DataChannels>
*
*       <ExtVolt0>yes</ExtVolt0>
*
*       <ExtVolt1>yes</ExtVolt1>
*
*       <ExtVolt2>yes</ExtVolt2>
*
*       <ExtVolt3>yes</ExtVolt3>
*
*       <ExtVolt4>yes</ExtVolt4>
*
*       <ExtVolt5>yes</ExtVolt5>
*
*       <SBE38>no</SBE38>
*
*       <WETLABS>no</WETLABS>
*
*       <OPTODE>no</OPTODE>
*
*       <SBE63>no</SBE63>
*
*       <SeaFET>no</SeaFET>
*
*       <GTD>no</GTD>
*
*    </DataChannels>
*
*    <EchoCharacters>yes</EchoCharacters>
*
*    <OutputExecutedTag>yes</OutputExecutedTag>
*
*    <OutputFormat>raw HEX</OutputFormat>
*
* </ConfigurationData>
* <CalibrationCoefficients DeviceType='SBE19plus' SerialNumber='01907809'>
*
*    <Calibration format='TEMP1' id='Main Temperature'>
*
*       <SerialNum>01907809</SerialNum>
*
*       <CalDate>24-Mar-19</CalDate>
*
*       <TA0>1.217923e-03</TA0>
*
*       <TA1>2.816693e-04</TA1>
*
*       <TA2>-1.603333e-06</TA2>
*
*       <TA3>1.984146e-07</TA3>
*
*       <TOFFSET>0.000000e+00</TOFFSET>
*
*    </Calibration>
*
*    <Calibration format='WBCOND0' id='Main Conductivity'>
*
*       <SerialNum>01907809</SerialNum>
*
*       <CalDate>24-Mar-19</CalDate>
*
*       <G>-1.005893e+00</G>
*
*       <H>1.268163e-01</H>
*
*       <I>-1.515604e-04</I>
*
*       <J>2.671373e-05</J>
*
*       <CPCOR>-9.570000e-08</CPCOR>
*
*       <CTCOR>3.250000e-06</CTCOR>
*
*       <CSLOPE>1.000000e+00</CSLOPE>
*
*    </Calibration>
*
*    <Calibration format='STRAIN0' id='Main Pressure'>
*
*       <SerialNum>10586018</SerialNum>
*
*       <CalDate>11-Mar-19</CalDate>
*
*       <PA0>4.565618e-02</PA0>
*
*       <PA1>4.850951e-04</PA1>
*
*       <PA2>-2.883271e-12</PA2>
*
*       <PTCA0>5.252467e+05</PTCA0>
*
*       <PTCA1>1.223042e+01</PTCA1>
*
*       <PTCA2>-3.567450e-01</PTCA2>
*
*       <PTCB0>2.516687e+01</PTCB0>
*
*       <PTCB1>3.750000e-04</PTCB1>
*
*       <PTCB2>0.000000e+00</PTCB2>
*
*       <PTEMPA0>-5.487846e+01</PTEMPA0>
*
*       <PTEMPA1>5.537568e+01</PTEMPA1>
*
*       <PTEMPA2>-5.867271e-01</PTEMPA2>
*
*       <POFFSET>7.140000e-01</POFFSET>
*
*       <PRANGE>1.600000e+02</PRANGE>
*
*    </Calibration>
*
*    <Calibration format='VOLT0' id='Volt 0'>
*
*       <OFFSET>-4.920000e-02</OFFSET>
*
*       <SLOPE>1.248122e+00</SLOPE>
*
*    </Calibration>
*
*    <Calibration format='VOLT0' id='Volt 1'>
*
*       <OFFSET>-4.784000e-02</OFFSET>
*
*       <SLOPE>1.248871e+00</SLOPE>
*
*    </Calibration>
*
*    <Calibration format='VOLT0' id='Volt 2'>
*
*       <OFFSET>-4.864632e-02</OFFSET>
*
*       <SLOPE>1.248714e+00</SLOPE>
*
*    </Calibration>
*
*    <Calibration format='VOLT0' id='Volt 3'>
*
*       <OFFSET>-4.743790e-02</OFFSET>
*
*       <SLOPE>1.248571e+00</SLOPE>
*
*    </Calibration>
*
*    <Calibration format='VOLT0' id='Volt 4'>
*
*       <OFFSET>-4.671263e-02</OFFSET>
*
*       <SLOPE>1.248951e+00</SLOPE>
*
*    </Calibration>
*
*    <Calibration format='VOLT0' id='Volt 5'>
*
*       <OFFSET>-4.871053e-02</OFFSET>
*
*       <SLOPE>1.249136e+00</SLOPE>
*
*    </Calibration>
*
*    <Calibration format='FREQ0' id='external frequency channel'>
*
*       <EXTFREQSF>1.000014e+00</EXTFREQSF>
*
*    </Calibration>
*
* </CalibrationCoefficients>
* <EventCounters DeviceType='SBE19plus' SerialNumber='01907809'>
*
*    <EventSummary numEvents='0'/>
*
* </EventCounters></InstrumentState>
* <Headers>
*
* cast   1 22 Jul 2019 10:09:47 samples 1 to 938, avg = 1, stop = mag switch
*
# nquan = 18
# nvalues = 748                         
# units = specified
# name 0 = depFM: Depth [fresh water, m]
# name 1 = tv290C: Temperature [ITS-90, deg C]
# name 2 = sbeox0Mg/L: Oxygen, SBE 43 [mg/l]
# name 3 = sbeox0PS: Oxygen, SBE 43 [% saturation]
# name 4 = c0uS/cm: Conductivity [uS/cm]
# name 5 = specc: Specific Conductance [uS/cm]
# name 6 = ph: pH
# name 7 = orp: Oxidation Reduction Potential [mV]
# name 8 = flECO-AFL: Fluorescence, WET Labs ECO-AFL/FL [mg/m^3]
# name 9 = turbWETntu0: Turbidity, WET Labs ECO [NTU]
# name 10 = sal00: Salinity, Practical [PSU]
# name 11 = dz/dtM: Descent Rate [m/s]
# name 12 = prdM: Pressure, Strain Gauge [db]
# name 13 = prdE: Pressure, Strain Gauge [psi]
# name 14 = scan: Scan Count
# name 15 = par/sat/log: PAR/Logarithmic, Satlantic
# name 16 = density00: Density [density, kg/m^3]
# name 17 = flag:  0.000e+00
# span 0 =     -0.609,      9.562       
# span 1 =    10.8770,    27.4280       
# span 2 =    -0.1946,    12.5806       
# span 3 =     -1.765,    142.619       
# span 4 =   0.267951,  93.465026       
# span 5 =      0.435,    129.841       
# span 6 =      6.243,      8.176       
# span 7 = -1240.7455,  1240.2295       
# span 8 =    -0.1560,    14.8818       
# span 9 =    -0.6142,   127.8371       
# span 10 =     0.0118,     0.0612      
# span 11 =     -0.112,      0.217      
# span 12 =     -0.597,      9.376      
# span 13 =     -0.866,     13.598      
# span 14 =          1,        748      
# span 15 = 1.2209e-01, 3.8979e+02      
# span 16 =   996.4158,   999.7112      
# span 17 = 0.0000e+00, 0.0000e+00      
# interval = seconds: 0.25
# start_time = Jul 22 2019 10:09:47 [Instrument's time stamp, header]
# bad_flag = -9.990e-29
# <Sensors count="9" >
#   <sensor Channel="1" >
#     <!-- Count, Temperature -->
#     <TemperatureSensor SensorID="58" >
#       <SerialNumber>7809</SerialNumber>
#       <CalibrationDate>24-Mar-19</CalibrationDate>
#       <A0>1.21792325e-003</A0>
#       <A1>2.81669265e-004</A1>
#       <A2>-1.60333336e-006</A2>
#       <A3>1.98414625e-007</A3>
#       <Slope>1.00000000</Slope>
#       <Offset>0.0000</Offset>
#     </TemperatureSensor>
#   </sensor>
#   <sensor Channel="2" >
#     <!-- Frequency 0, Conductivity -->
#     <ConductivitySensor SensorID="3" >
#       <SerialNumber>7809</SerialNumber>
#       <CalibrationDate>24-Mar-19</CalibrationDate>
#       <UseG_J>1</UseG_J>
#       <!-- Cell const and series R are applicable only for wide range sensors. -->
#       <SeriesR>0.0000</SeriesR>
#       <CellConst>2000.0000</CellConst>
#       <ConductivityType>0</ConductivityType>
#       <Coefficients equation="0" >
#         <A>0.00000000e+000</A>
#         <B>0.00000000e+000</B>
#         <C>0.00000000e+000</C>
#         <D>0.00000000e+000</D>
#         <M>0.0</M>
#         <CPcor>-9.57000000e-008</CPcor>
#       </Coefficients>
#       <Coefficients equation="1" >
#         <G>-1.00589325e+000</G>
#         <H>1.26816302e-001</H>
#         <I>-1.51560448e-004</I>
#         <J>2.67137274e-005</J>
#         <CPcor>-9.57000000e-008</CPcor>
#         <CTcor>3.2500e-006</CTcor>
#         <!-- WBOTC not applicable unless ConductivityType = 1. -->
#         <WBOTC>0.00000000e+000</WBOTC>
#       </Coefficients>
#       <Slope>1.00000000</Slope>
#       <Offset>0.00000</Offset>
#     </ConductivitySensor>
#   </sensor>
#   <sensor Channel="3" >
#     <!-- Count, Pressure, Strain Gauge -->
#     <PressureSensor SensorID="46" >
#       <SerialNumber>7809</SerialNumber>
#       <CalibrationDate>11-Mar-19</CalibrationDate>
#       <PA0>4.56561833e-002</PA0>
#       <PA1>4.85095118e-004</PA1>
#       <PA2>-2.88327090e-012</PA2>
#       <PTEMPA0>-5.48784562e+001</PTEMPA0>
#       <PTEMPA1>5.53756816e+001</PTEMPA1>
#       <PTEMPA2>-5.86727098e-001</PTEMPA2>
#       <PTCA0>5.25246745e+005</PTCA0>
#       <PTCA1>1.22304214e+001</PTCA1>
#       <PTCA2>-3.56745036e-001</PTCA2>
#       <PTCB0>2.51668750e+001</PTCB0>
#       <PTCB1>3.75000000e-004</PTCB1>
#       <PTCB2>0.00000000e+000</PTCB2>
#       <Offset>0.000000</Offset>
#     </PressureSensor>
#   </sensor>
#   <sensor Channel="4" >
#     <!-- A/D voltage 0, Oxygen, SBE 43 -->
#     <OxygenSensor SensorID="38" >
#       <SerialNumber>0434</SerialNumber>
#       <CalibrationDate>13-Apr-19</CalibrationDate>
#       <Use2007Equation>1</Use2007Equation>
#       <CalibrationCoefficients equation="0" >
#         <!-- Coefficients for Owens-Millard equation. -->
#         <Boc>0.0000</Boc>
#         <Soc>0.0000e+000</Soc>
#         <offset>0.0000</offset>
#         <Pcor>0.00e+000</Pcor>
#         <Tcor>0.0000</Tcor>
#         <Tau>0.0</Tau>
#       </CalibrationCoefficients>
#       <CalibrationCoefficients equation="1" >
#         <!-- Coefficients for Sea-Bird equation - SBE calibration in 2007 and later. -->
#         <Soc>4.2007e-001</Soc>
#         <offset>-0.6109</offset>
#         <A>-4.3656e-003</A>
#         <B> 1.7017e-004</B>
#         <C>-2.5341e-006</C>
#         <D0> 2.5826e+000</D0>
#         <D1> 1.92634e-004</D1>
#         <D2>-4.64803e-002</D2>
#         <E> 3.6000e-002</E>
#         <Tau20> 1.1800</Tau20>
#         <H1>-3.3000e-002</H1>
#         <H2> 5.0000e+003</H2>
#         <H3> 1.4500e+003</H3>
#       </CalibrationCoefficients>
#     </OxygenSensor>
#   </sensor>
#   <sensor Channel="5" >
#     <!-- A/D voltage 1, PAR/Logarithmic, Satlantic -->
#     <PARLog_SatlanticSensor SensorID="76" >
#       <SerialNumber>1122</SerialNumber>
#       <CalibrationDate>08-May-2019</CalibrationDate>
#       <a0>9.7456e-001</a0>
#       <a1>8.1640e-001</a1>
#       <Im>1.3589e+000</Im>
#       <Multiplier>1.0000e+000</Multiplier>
#     </PARLog_SatlanticSensor>
#   </sensor>
#   <sensor Channel="6" >
#     <!-- A/D voltage 2, pH -->
#     <pH_Sensor SensorID="43" >
#       <SerialNumber>0363</SerialNumber>
#       <CalibrationDate>15-Apr-19</CalibrationDate>
#       <Slope>4.5952</Slope>
#       <Offset>2.5370</Offset>
#     </pH_Sensor>
#   </sensor>
#   <sensor Channel="7" >
#     <!-- A/D voltage 3, Oxidation Reduction Potential -->
#     <OxidationReductionPotentialSensor SensorID="41" >
#       <SerialNumber>0363</SerialNumber>
#       <CalibrationDate>15-Apr-19</CalibrationDate>
#       <B>2.499480</B>
#       <M>-0.496195</M>
#       <Offset>0.0</Offset>
#     </OxidationReductionPotentialSensor>
#   </sensor>
#   <sensor Channel="8" >
#     <!-- A/D voltage 4, Fluorometer, WET Labs ECO-AFL/FL -->
#     <FluoroWetlabECO_AFL_FL_Sensor SensorID="20" >
#       <SerialNumber>FLNTURT-2496</SerialNumber>
#       <CalibrationDate>08-May-2019</CalibrationDate>
#       <ScaleFactor>5.00000000e+001</ScaleFactor>
#       <!-- Dark output -->
#       <Vblank>0.0550</Vblank>
#     </FluoroWetlabECO_AFL_FL_Sensor>
#   </sensor>
#   <sensor Channel="9" >
#     <!-- A/D voltage 5, Turbidity Meter, WET Labs, ECO-NTU -->
#     <TurbidityMeter SensorID="67" >
#       <SerialNumber>FLNTURT-2496</SerialNumber>
#       <CalibrationDate>08-May-2019</CalibrationDate>
#       <ScaleFactor>189.000000</ScaleFactor>
#       <!-- Dark output -->
#       <DarkVoltage>0.071000</DarkVoltage>
#     </TurbidityMeter>
#   </sensor>
# </Sensors>
# datcnv_date = Jul 23 2019 10:50:48, 7.26.7.129 [datcnv_vars = 17]
# datcnv_in = C:\DATA\072219_fcr50.hex C:\DATA\SBE19plusV2_7809.xmlcon
# datcnv_skipover = 0
# datcnv_ox_hysteresis_correction = yes
# datcnv_ox_tau_correction = yes
# filter_date = Jul 23 2019 10:51:03, 7.26.7.129
# filter_in = C:\DATA\072219_fcr50.cnv
# filter_low_pass_tc_A = 0.030
# filter_low_pass_tc_B = 0.150
# filter_low_pass_A_vars = tv290C c0uS/cm par/sat/log density00
# filter_low_pass_B_vars = prdM prdE
# alignctd_date = Jul 23 2019 10:51:16, 7.26.7.129
# alignctd_in = C:\DATA\072219_fcr50.cnv
# alignctd_adv = tv290C 0.500, sbeox0Mg/L 3.000, sbeox0PS 3.000                                                                                                                                                                      
# file_type = ascii
*END*
     -0.608    25.0143     7.9761     96.556   1.215026      1.243      6.455 -1240.7455    -0.1140    -0.2105     0.0119      0.000     -0.596     -0.864          1 3.6510e+02   997.0491 0.0000e+00
     -0.608    25.0142     7.9759     96.554   0.994456      0.964      6.449 -1240.7455    -0.1102    -0.2105     0.0118     -0.000     -0.596     -0.865          2 3.6004e+02   997.0490 0.0000e+00
     -0.608    25.0140     7.9802     96.605   1.062326      1.076      6.449 -1240.7455    -0.1178    -0.2105     0.0118     -0.000     -0.596     -0.865          3 3.3469e+02   997.0490 0.0000e+00
     -0.608    25.0144     7.9800     96.604   0.834739      0.853      6.446 -1240.7455    -0.1026    -0.2682     0.0118     -0.000     -0.596     -0.865          4 3.1788e+02   997.0491 0.0000e+00
     -0.608    25.0144     7.9798     96.600   0.597297      0.546      6.441 -1240.7455    -0.1216    -0.3114     0.0119     -0.000     -0.597     -0.865          5 3.1665e+02   997.0492 0.0000e+00
     -0.608    25.0142     7.9799     96.602   0.854924      0.909      6.448 -1240.7455    -0.1522    -0.2826     0.0118     -0.000     -0.597     -0.865          6 3.0727e+02   997.0490 0.0000e+00
     -0.608    25.0140     7.9776     96.574   0.898690      0.853      6.462 -1240.7455    -0.0949    -0.2105     0.0118     -0.000     -0.596     -0.865          7 3.0988e+02   997.0490 0.0000e+00
     -0.608    25.0139     7.9787     96.588   0.986559      1.020      6.450 -1240.7455    -0.1216    -0.3547     0.0118     -0.000     -0.596     -0.864          8 3.1175e+02   997.0491 0.0000e+00
     -0.607    25.0140     7.9776     96.575   0.923065      0.909      6.462 -1240.7455    -0.1102    -0.3403     0.0118      0.000     -0.596     -0.864          9 3.0708e+02   997.0491 0.0000e+00
     -0.608    25.0139     7.9803     96.607   1.036873      1.020      6.433 -1240.7455    -0.1026    -0.2682     0.0118      0.000     -0.596     -0.865         10 2.8638e+02   997.0492 0.0000e+00
     -0.608    25.0140     7.9784     96.585   0.904093      0.964      6.422 -1240.7455    -0.1026    -0.2826     0.0118      0.000     -0.596     -0.865         11 2.5491e+02   997.0491 0.0000e+00
     -0.608    25.0138     7.9776     96.575   0.585415      0.491      6.436 -1240.7455    -0.1064    -0.1961     0.0119      0.000     -0.596     -0.865         12 2.3533e+02   997.0492 0.0000e+00
     -0.608    25.0135     7.9807     96.613   1.196813      1.271      6.449 -1240.7455    -0.1026    -0.3691     0.0119      0.000     -0.596     -0.865         13 2.1748e+02   997.0491 0.0000e+00
     -0.608    25.0134     7.9784     96.585   1.415255      1.382      6.450 -1240.7455    -0.1445    -0.2970     0.0119     -0.000     -0.597     -0.865         14 2.1540e+02   997.0492 0.0000e+00
     -0.608    25.0135     7.9798     96.602   0.934790      0.964      6.451 -1240.7455    -0.1178    -0.3114     0.0118     -0.000     -0.597     -0.865         15 2.2435e+02   997.0493 0.0000e+00
     -0.609    25.0139     7.9811     96.619   0.966435      0.909      6.447 -1240.7455    -0.1026    -0.1961     0.0118     -0.000     -0.597     -0.866         16 2.5900e+02   997.0492 0.0000e+00
     -0.609    25.0140     7.9825     96.636   1.198379      1.271      6.445 -1240.7455    -0.0949    -0.2682     0.0119     -0.000     -0.597     -0.866         17 3.0454e+02   997.0492 0.0000e+00
     -0.608    25.0142     7.9802     96.608   0.971547      0.909      6.449 -1240.7455    -0.1331    -0.2393     0.0118     -0.000     -0.597     -0.866         18 3.1882e+02   997.0492 0.0000e+00
     -0.609    25.0141     7.9816     96.626   0.923316      0.964      6.454 -1240.7455    -0.1064    -0.3114     0.0118     -0.000     -0.597     -0.865         19 3.2990e+02   997.0491 0.0000e+00
     -0.608    25.0141     7.9789     96.594   0.932994      0.909      6.454 -1240.7455    -0.1407    -0.2393     0.0118     -0.000     -0.596     -0.865         20 3.4225e+02   997.0491 0.0000e+00
     -0.608    25.0142     7.9774     96.576   0.900337      0.909      6.451 -1240.7455    -0.1293    -0.4556     0.0118      0.000     -0.596     -0.865         21 3.3932e+02   997.0491 0.0000e+00
     -0.608    25.0141     7.9797     96.605   0.963957      0.964      6.457 -1240.7455    -0.1102    -0.4124     0.0118      0.000     -0.596     -0.865         22 3.3213e+02   997.0491 0.0000e+00
