* Sea-Bird SBE19plus  Data File:
* FileName = C:\DATA\0772919_fcr_0002.hex
* Software version 2.8.0.119
* Temperature SN = 7809
* Conductivity SN = 7809
* System UpLoad Time = Jul 29 2019 16:12:00
* <ApplicationData>
* <Seaterm232>
* <SoftwareVersion>2.8.0.119</SoftwareVersion>
* <BuildDate>07-Nov-2018</BuildDate>
* </Seaterm232>
* </ApplicationData>
* <InstrumentState>
* <HardwareData DeviceType='SBE19plus' SerialNumber='01907809'>
*
*    <Manufacturer>Sea-Bird Electronics, Inc.</Manufacturer>
*
*    <FirmwareVersion>3.1.8</FirmwareVersion>
*
*    <FirmwareDate>Mar  9 2016 16:22:29</FirmwareDate>
*
*    <CommandSetVersion>1.4</CommandSetVersion>
*
*    <PCBAssembly PCBSerialNum='120721' AssemblyNum='41054J'/>
*
*    <PCBAssembly PCBSerialNum='120715' AssemblyNum='41967A'/>
*
*    <PCBAssembly PCBSerialNum='116699' AssemblyNum='41606'/>
*
*    <PCBAssembly PCBSerialNum='120719' AssemblyNum='41059D'/>
*
*    <MfgDate>28-Apr-2017</MfgDate>
*
*    <InternalSensors>
*
*       <Sensor id='Main Temperature'>
*
*          <type>temperature0</type>
*
*          <SerialNumber>01907809</SerialNumber>
*
*       </Sensor>
*
*       <Sensor id='Main Conductivity'>
*
*          <type>conductivity-0</type>
*
*          <SerialNumber>01907809</SerialNumber>
*
*       </Sensor>
*
*       <Sensor id='Main Pressure'>
*
*          <type>strain-0</type>
*
*          <SerialNumber>10586018</SerialNumber>
*
*       </Sensor>
*
*    </InternalSensors>
*
*    <ExternalSensors>
*
*       <Sensor id='volt 0'>
*
*          <type>pH</type>
*
*          <SerialNumber>27-0363</SerialNumber>
*
*       </Sensor>
*
*       <Sensor id='volt 1'>
*
*          <type>ORP</type>
*
*          <SerialNumber>27-0363</SerialNumber>
*
*       </Sensor>
*
*       <Sensor id='volt 2'>
*
*          <type>OXY</type>
*
*          <SerialNumber>43-0434</SerialNumber>
*
*       </Sensor>
*
*       <Sensor id='volt 3'>
*
*          <type>PAR</type>
*
*          <SerialNumber>1122</SerialNumber>
*
*       </Sensor>
*
*       <Sensor id='volt 4'>
*
*          <type>ECO AFL/FL</type>
*
*          <SerialNumber>FLNTURT-2496</SerialNumber>
*
*       </Sensor>
*
*       <Sensor id='volt 5'>
*
*          <type>ECO-NTU</type>
*
*          <SerialNumber>FLNTURT-2496</SerialNumber>
*
*       </Sensor>
*
*       <Sensor id='serial'>
*
*          <type>not assigned</type>
*
*          <SerialNumber>not assigned</SerialNumber>
*
*       </Sensor>
*
*    </ExternalSensors>
*
* </HardwareData>
* <StatusData DeviceType='SBE19plus' SerialNumber='01907809'>
*
*    <DateTime>2019-07-29T16:10:52</DateTime>
*
*    <LoggingState>not logging</LoggingState>
*
*    <EventSummary numEvents='0'/>
*
*    <Power>
*
*       <vMain>12.3</vMain>
*
*       <vLith>9.0</vLith>
*
*       <iMain>63.1</iMain>
*
*       <iPump>39.9</iPump>
*
*       <iExt01>19.0</iExt01>
*
*       <iExt2345>36.2</iExt2345>
*
*    </Power>
*
*    <MemorySummary>
*
*       <Bytes>44160</Bytes>
*
*       <Samples>1920</Samples>
*
*       <SamplesFree>2858868</SamplesFree>
*
*       <SampleLength>23</SampleLength>
*
*       <Profiles>4</Profiles>
*
*    </MemorySummary>
*
* </StatusData>
* <ConfigurationData DeviceType='SBE19plus' SerialNumber='01907809'>
*
*    <ProfileMode>
*
*       <ScansToAverage>1</ScansToAverage>
*
*       <MinimumCondFreq>5</MinimumCondFreq>
*
*       <PumpDelay>45</PumpDelay>
*
*       <AutoRun>no</AutoRun>
*
*       <IgnoreSwitch>no</IgnoreSwitch>
*
*    </ProfileMode>
*
*    <Battery>
*
*       <Type>alkaline</Type>
*
*       <CutOff>7.5</CutOff>
*
*    </Battery>
*
*    <DataChannels>
*
*       <ExtVolt0>yes</ExtVolt0>
*
*       <ExtVolt1>yes</ExtVolt1>
*
*       <ExtVolt2>yes</ExtVolt2>
*
*       <ExtVolt3>yes</ExtVolt3>
*
*       <ExtVolt4>yes</ExtVolt4>
*
*       <ExtVolt5>yes</ExtVolt5>
*
*       <SBE38>no</SBE38>
*
*       <WETLABS>no</WETLABS>
*
*       <OPTODE>no</OPTODE>
*
*       <SBE63>no</SBE63>
*
*       <SeaFET>no</SeaFET>
*
*       <GTD>no</GTD>
*
*    </DataChannels>
*
*    <EchoCharacters>yes</EchoCharacters>
*
*    <OutputExecutedTag>yes</OutputExecutedTag>
*
*    <OutputFormat>raw HEX</OutputFormat>
*
* </ConfigurationData>
* <CalibrationCoefficients DeviceType='SBE19plus' SerialNumber='01907809'>
*
*    <Calibration format='TEMP1' id='Main Temperature'>
*
*       <SerialNum>01907809</SerialNum>
*
*       <CalDate>24-Mar-19</CalDate>
*
*       <TA0>1.217923e-03</TA0>
*
*       <TA1>2.816693e-04</TA1>
*
*       <TA2>-1.603333e-06</TA2>
*
*       <TA3>1.984146e-07</TA3>
*
*       <TOFFSET>0.000000e+00</TOFFSET>
*
*    </Calibration>
*
*    <Calibration format='WBCOND0' id='Main Conductivity'>
*
*       <SerialNum>01907809</SerialNum>
*
*       <CalDate>24-Mar-19</CalDate>
*
*       <G>-1.005893e+00</G>
*
*       <H>1.268163e-01</H>
*
*       <I>-1.515604e-04</I>
*
*       <J>2.671373e-05</J>
*
*       <CPCOR>-9.570000e-08</CPCOR>
*
*       <CTCOR>3.250000e-06</CTCOR>
*
*       <CSLOPE>1.000000e+00</CSLOPE>
*
*    </Calibration>
*
*    <Calibration format='STRAIN0' id='Main Pressure'>
*
*       <SerialNum>10586018</SerialNum>
*
*       <CalDate>11-Mar-19</CalDate>
*
*       <PA0>4.565618e-02</PA0>
*
*       <PA1>4.850951e-04</PA1>
*
*       <PA2>-2.883271e-12</PA2>
*
*       <PTCA0>5.252467e+05</PTCA0>
*
*       <PTCA1>1.223042e+01</PTCA1>
*
*       <PTCA2>-3.567450e-01</PTCA2>
*
*       <PTCB0>2.516687e+01</PTCB0>
*
*       <PTCB1>3.750000e-04</PTCB1>
*
*       <PTCB2>0.000000e+00</PTCB2>
*
*       <PTEMPA0>-5.487846e+01</PTEMPA0>
*
*       <PTEMPA1>5.537568e+01</PTEMPA1>
*
*       <PTEMPA2>-5.867271e-01</PTEMPA2>
*
*       <POFFSET>7.140000e-01</POFFSET>
*
*       <PRANGE>1.600000e+02</PRANGE>
*
*    </Calibration>
*
*    <Calibration format='VOLT0' id='Volt 0'>
*
*       <OFFSET>-4.920000e-02</OFFSET>
*
*       <SLOPE>1.248122e+00</SLOPE>
*
*    </Calibration>
*
*    <Calibration format='VOLT0' id='Volt 1'>
*
*       <OFFSET>-4.784000e-02</OFFSET>
*
*       <SLOPE>1.248871e+00</SLOPE>
*
*    </Calibration>
*
*    <Calibration format='VOLT0' id='Volt 2'>
*
*       <OFFSET>-4.864632e-02</OFFSET>
*
*       <SLOPE>1.248714e+00</SLOPE>
*
*    </Calibration>
*
*    <Calibration format='VOLT0' id='Volt 3'>
*
*       <OFFSET>-4.743790e-02</OFFSET>
*
*       <SLOPE>1.248571e+00</SLOPE>
*
*    </Calibration>
*
*    <Calibration format='VOLT0' id='Volt 4'>
*
*       <OFFSET>-4.671263e-02</OFFSET>
*
*       <SLOPE>1.248951e+00</SLOPE>
*
*    </Calibration>
*
*    <Calibration format='VOLT0' id='Volt 5'>
*
*       <OFFSET>-4.871053e-02</OFFSET>
*
*       <SLOPE>1.249136e+00</SLOPE>
*
*    </Calibration>
*
*    <Calibration format='FREQ0' id='external frequency channel'>
*
*       <EXTFREQSF>1.000014e+00</EXTFREQSF>
*
*    </Calibration>
*
* </CalibrationCoefficients>
* <EventCounters DeviceType='SBE19plus' SerialNumber='01907809'>
*
*    <EventSummary numEvents='0'/>
*
* </EventCounters></InstrumentState>
* <Headers>
*
* cast   2 29 Jul 2019 11:39:20 samples 362 to 757, avg = 1, stop = mag switch
*
# nquan = 18
# nvalues = 318                         
# units = specified
# name 0 = depFM: Depth [fresh water, m]
# name 1 = tv290C: Temperature [ITS-90, deg C]
# name 2 = sbeox0Mg/L: Oxygen, SBE 43 [mg/l]
# name 3 = sbeox0PS: Oxygen, SBE 43 [% saturation]
# name 4 = c0uS/cm: Conductivity [uS/cm]
# name 5 = specc: Specific Conductance [uS/cm]
# name 6 = ph: pH
# name 7 = orp: Oxidation Reduction Potential [mV]
# name 8 = flECO-AFL: Fluorescence, WET Labs ECO-AFL/FL [mg/m^3]
# name 9 = turbWETntu0: Turbidity, WET Labs ECO [NTU]
# name 10 = sal00: Salinity, Practical [PSU]
# name 11 = dz/dtM: Descent Rate [m/s]
# name 12 = prdM: Pressure, Strain Gauge [db]
# name 13 = prdE: Pressure, Strain Gauge [psi]
# name 14 = scan: Scan Count
# name 15 = par/sat/log: PAR/Logarithmic, Satlantic
# name 16 = density00: Density [density, kg/m^3]
# name 17 = flag:  0.000e+00
# span 0 =     -0.549,      3.088       
# span 1 =    18.8335,    26.4501       
# span 2 =     0.0707,    10.3569       
# span 3 =      0.792,    125.096       
# span 4 =   2.111196, 154.339138       
# span 5 =      2.028,    175.675       
# span 6 =      7.209,      9.670       
# span 7 =  -217.5397,  1240.2295       
# span 8 =    -1.4682,    30.5490       
# span 9 =    -4.6518,    30.9506       
# span 10 =     0.0121,     0.0851      
# span 11 =     -0.010,      0.273      
# span 12 =     -0.538,      3.027      
# span 13 =     -0.780,      4.391      
# span 14 =          1,        318      
# span 15 = 1.8631e+01, 2.0337e+03      
# span 16 =   996.6832,   998.5166      
# span 17 = 0.0000e+00, 0.0000e+00      
# interval = seconds: 0.25
# start_time = Jul 29 2019 11:39:20 [Instrument's time stamp, header]
# bad_flag = -9.990e-29
# <Sensors count="9" >
#   <sensor Channel="1" >
#     <!-- Count, Temperature -->
#     <TemperatureSensor SensorID="58" >
#       <SerialNumber>7809</SerialNumber>
#       <CalibrationDate>24-Mar-19</CalibrationDate>
#       <A0>1.21792325e-003</A0>
#       <A1>2.81669265e-004</A1>
#       <A2>-1.60333336e-006</A2>
#       <A3>1.98414625e-007</A3>
#       <Slope>1.00000000</Slope>
#       <Offset>0.0000</Offset>
#     </TemperatureSensor>
#   </sensor>
#   <sensor Channel="2" >
#     <!-- Frequency 0, Conductivity -->
#     <ConductivitySensor SensorID="3" >
#       <SerialNumber>7809</SerialNumber>
#       <CalibrationDate>24-Mar-19</CalibrationDate>
#       <UseG_J>1</UseG_J>
#       <!-- Cell const and series R are applicable only for wide range sensors. -->
#       <SeriesR>0.0000</SeriesR>
#       <CellConst>2000.0000</CellConst>
#       <ConductivityType>0</ConductivityType>
#       <Coefficients equation="0" >
#         <A>0.00000000e+000</A>
#         <B>0.00000000e+000</B>
#         <C>0.00000000e+000</C>
#         <D>0.00000000e+000</D>
#         <M>0.0</M>
#         <CPcor>-9.57000000e-008</CPcor>
#       </Coefficients>
#       <Coefficients equation="1" >
#         <G>-1.00589325e+000</G>
#         <H>1.26816302e-001</H>
#         <I>-1.51560448e-004</I>
#         <J>2.67137274e-005</J>
#         <CPcor>-9.57000000e-008</CPcor>
#         <CTcor>3.2500e-006</CTcor>
#         <!-- WBOTC not applicable unless ConductivityType = 1. -->
#         <WBOTC>0.00000000e+000</WBOTC>
#       </Coefficients>
#       <Slope>1.00000000</Slope>
#       <Offset>0.00000</Offset>
#     </ConductivitySensor>
#   </sensor>
#   <sensor Channel="3" >
#     <!-- Count, Pressure, Strain Gauge -->
#     <PressureSensor SensorID="46" >
#       <SerialNumber>7809</SerialNumber>
#       <CalibrationDate>11-Mar-19</CalibrationDate>
#       <PA0>4.56561833e-002</PA0>
#       <PA1>4.85095118e-004</PA1>
#       <PA2>-2.88327090e-012</PA2>
#       <PTEMPA0>-5.48784562e+001</PTEMPA0>
#       <PTEMPA1>5.53756816e+001</PTEMPA1>
#       <PTEMPA2>-5.86727098e-001</PTEMPA2>
#       <PTCA0>5.25246745e+005</PTCA0>
#       <PTCA1>1.22304214e+001</PTCA1>
#       <PTCA2>-3.56745036e-001</PTCA2>
#       <PTCB0>2.51668750e+001</PTCB0>
#       <PTCB1>3.75000000e-004</PTCB1>
#       <PTCB2>0.00000000e+000</PTCB2>
#       <Offset>0.000000</Offset>
#     </PressureSensor>
#   </sensor>
#   <sensor Channel="4" >
#     <!-- A/D voltage 0, Oxygen, SBE 43 -->
#     <OxygenSensor SensorID="38" >
#       <SerialNumber>0434</SerialNumber>
#       <CalibrationDate>13-Apr-19</CalibrationDate>
#       <Use2007Equation>1</Use2007Equation>
#       <CalibrationCoefficients equation="0" >
#         <!-- Coefficients for Owens-Millard equation. -->
#         <Boc>0.0000</Boc>
#         <Soc>0.0000e+000</Soc>
#         <offset>0.0000</offset>
#         <Pcor>0.00e+000</Pcor>
#         <Tcor>0.0000</Tcor>
#         <Tau>0.0</Tau>
#       </CalibrationCoefficients>
#       <CalibrationCoefficients equation="1" >
#         <!-- Coefficients for Sea-Bird equation - SBE calibration in 2007 and later. -->
#         <Soc>4.2007e-001</Soc>
#         <offset>-0.6109</offset>
#         <A>-4.3656e-003</A>
#         <B> 1.7017e-004</B>
#         <C>-2.5341e-006</C>
#         <D0> 2.5826e+000</D0>
#         <D1> 1.92634e-004</D1>
#         <D2>-4.64803e-002</D2>
#         <E> 3.6000e-002</E>
#         <Tau20> 1.1800</Tau20>
#         <H1>-3.3000e-002</H1>
#         <H2> 5.0000e+003</H2>
#         <H3> 1.4500e+003</H3>
#       </CalibrationCoefficients>
#     </OxygenSensor>
#   </sensor>
#   <sensor Channel="5" >
#     <!-- A/D voltage 1, PAR/Logarithmic, Satlantic -->
#     <PARLog_SatlanticSensor SensorID="76" >
#       <SerialNumber>1122</SerialNumber>
#       <CalibrationDate>08-May-2019</CalibrationDate>
#       <a0>9.7456e-001</a0>
#       <a1>8.1640e-001</a1>
#       <Im>1.3589e+000</Im>
#       <Multiplier>1.0000e+000</Multiplier>
#     </PARLog_SatlanticSensor>
#   </sensor>
#   <sensor Channel="6" >
#     <!-- A/D voltage 2, pH -->
#     <pH_Sensor SensorID="43" >
#       <SerialNumber>0363</SerialNumber>
#       <CalibrationDate>15-Apr-19</CalibrationDate>
#       <Slope>4.5952</Slope>
#       <Offset>2.5370</Offset>
#     </pH_Sensor>
#   </sensor>
#   <sensor Channel="7" >
#     <!-- A/D voltage 3, Oxidation Reduction Potential -->
#     <OxidationReductionPotentialSensor SensorID="41" >
#       <SerialNumber>0363</SerialNumber>
#       <CalibrationDate>15-Apr-19</CalibrationDate>
#       <B>2.499480</B>
#       <M>-0.496195</M>
#       <Offset>0.0</Offset>
#     </OxidationReductionPotentialSensor>
#   </sensor>
#   <sensor Channel="8" >
#     <!-- A/D voltage 4, Fluorometer, WET Labs ECO-AFL/FL -->
#     <FluoroWetlabECO_AFL_FL_Sensor SensorID="20" >
#       <SerialNumber>FLNTURT-2496</SerialNumber>
#       <CalibrationDate>08-May-2019</CalibrationDate>
#       <ScaleFactor>5.00000000e+001</ScaleFactor>
#       <!-- Dark output -->
#       <Vblank>0.0550</Vblank>
#     </FluoroWetlabECO_AFL_FL_Sensor>
#   </sensor>
#   <sensor Channel="9" >
#     <!-- A/D voltage 5, Turbidity Meter, WET Labs, ECO-NTU -->
#     <TurbidityMeter SensorID="67" >
#       <SerialNumber>FLNTURT-2496</SerialNumber>
#       <CalibrationDate>08-May-2019</CalibrationDate>
#       <ScaleFactor>189.000000</ScaleFactor>
#       <!-- Dark output -->
#       <DarkVoltage>0.071000</DarkVoltage>
#     </TurbidityMeter>
#   </sensor>
# </Sensors>
# datcnv_date = Jul 29 2019 16:17:39, 7.26.7.129 [datcnv_vars = 17]
# datcnv_in = C:\DATA\0772919_fcr20.hex C:\DATA\SBE19plusV2_7809.xmlcon
# datcnv_skipover = 0
# datcnv_ox_hysteresis_correction = yes
# datcnv_ox_tau_correction = yes
# filter_date = Jul 29 2019 16:17:58, 7.26.7.129
# filter_in = C:\DATA\0772919_fcr20.cnv
# filter_low_pass_tc_A = 0.030
# filter_low_pass_tc_B = 0.150
# filter_low_pass_A_vars = tv290C c0uS/cm par/sat/log density00
# filter_low_pass_B_vars = prdM prdE
# alignctd_date = Jul 29 2019 16:18:22, 7.26.7.129
# alignctd_in = C:\DATA\0772919_fcr20.cnv
# alignctd_adv = tv290C 0.500, sbeox0Mg/L 3.000, sbeox0PS 3.000                                                                                                                                                                      
# file_type = ascii
*END*
     -0.548    25.5874     7.8217     95.646   2.111196      2.028      7.296   444.5079    -0.0949    -0.3114     0.0121      0.000     -0.537     -0.779          1 1.5464e+02   996.9011 0.0000e+00
     -0.548    25.5877     7.8233     95.667   2.606574      2.634      7.295   422.6643    -0.0835    -0.2682     0.0122 -2.105e-16     -0.537     -0.779          2 2.0450e+02   996.9011 0.0000e+00
     -0.548    25.5876     7.8211     95.641   2.582784      2.524      7.286   404.8714    -0.1140    -0.3403     0.0122     -0.000     -0.537     -0.780          3 3.5129e+02   996.9010 0.0000e+00
     -0.548    25.5873     7.8212     95.643   2.495810      2.469      7.277   388.1006    -0.8884    -0.4268     0.0122     -0.000     -0.537     -0.780          4 2.0105e+02   996.9009 0.0000e+00
     -0.548    25.5864     7.8209     95.642   2.744397      2.717      7.278   387.4949    -0.8922    -0.5277     0.0122     -0.000     -0.537     -0.780          5 1.4442e+02   996.9010 0.0000e+00
     -0.547    25.5822     7.8233     95.732   2.924287      2.882      7.277   371.7084    -0.8960    -0.5854     0.0123     -0.000     -0.537     -0.779          6 1.6956e+02   996.9011 0.0000e+00
     -0.548    25.5750     7.7924     95.730   2.952393      2.937      7.275   359.2155    -0.9113    -0.5277     0.0123      0.000     -0.537     -0.779          7 1.3730e+02   996.9014 0.0000e+00
     -0.547    25.5691     7.7542     95.649   2.946100      2.882      7.272   351.1141    -0.8960    -0.5566     0.0123      0.000     -0.537     -0.779          8 1.2917e+02   996.9024 0.0000e+00
     -0.548    25.5649     7.7297     95.624   3.375899      3.351      7.266   341.6876     0.2026     2.6158     0.0124      0.000     -0.537     -0.780          9 1.5664e+02   996.9044 0.0000e+00
     -0.548    25.5635     7.7158     95.666   3.305076      3.297      7.267   323.5161     0.2026     2.6158     0.0124      0.000     -0.538     -0.780         10 2.3157e+02   996.9060 0.0000e+00
     -0.549    25.5622     7.7105     95.759   3.152579      3.049      7.269   307.8432     0.1950     2.6302     0.0123     -0.000     -0.538     -0.780         11 2.2638e+02   996.9070 0.0000e+00
     -0.548    25.5644     7.7280     96.030   2.973970      3.049      7.269   293.6089     0.2103     2.6879     0.0123     -0.000     -0.538     -0.780         12 2.7116e+02   996.9073 0.0000e+00
     -0.549    25.5627     7.7535     96.360   3.320253      3.104      7.268   278.8824    -1.4682     4.1875     0.0123     -0.001     -0.538     -0.780         13 3.2448e+02   996.9078 0.0000e+00
     -0.548    25.5672     7.7994     96.902   2.928734      3.187      7.269   265.4052    -1.4530     4.1587     0.0123     -0.000     -0.538     -0.780         14 3.6542e+02   996.9072 0.0000e+00
     -0.548    25.5619     7.8534     97.507   3.372452      2.884      7.267   252.0416    -1.4301     4.1443     0.0123     -0.000     -0.538     -0.780         15 4.9368e+02   996.9077 0.0000e+00
     -0.548    25.6076     7.9019     98.078   2.146762      2.828      7.276   228.4187    -1.4568     4.2452     0.0123     -0.000     -0.537     -0.779         16 6.6677e+02   996.9062 0.0000e+00
     -0.548    25.8099     7.9473     98.613   3.744043      2.580      7.209  -217.5397     0.5421    -4.6229     0.0122     -0.000     -0.531     -0.771         17 8.0288e+02   996.9080 0.0000e+00
     -0.531    26.0376     7.9914     99.088  17.248345     17.901      7.348  1240.2295     0.5765    -4.6374     0.0171      0.005     -0.505     -0.732         18 9.8633e+02   996.8994 0.0000e+00
     -0.462    26.1948     8.0293     99.449  30.335226     29.276      7.887   199.0793     0.5650    -4.6518     0.0216      0.026     -0.445     -0.645         19 1.3258e+03   996.8501 0.0000e+00
     -0.367    26.3212     8.0623     99.792  37.086970     36.971      8.420   184.5043     0.5841    -4.6374     0.0247      0.066     -0.363     -0.527         20 1.4925e+03   996.7922 0.0000e+00
     -0.282    26.4090     8.0926    100.132  38.144265     36.855      8.855   182.0814    -0.2246    30.8497     0.0247      0.118     -0.282     -0.410         21 1.7391e+03   996.7509 0.0000e+00
     -0.216    26.4434     8.0923    100.087  37.493649     36.766      9.124   187.0407    -0.2361    30.8930     0.0247      0.168     -0.212     -0.307         22 1.7193e+03   996.7171 0.0000e+00
