* Sea-Bird SBE19plus  Data File:
* FileName = C:\DATA\080519_fcr50_0003.hex
* Software version 2.8.0.119 SB_Terminal.dll
* Temperature SN = 7809
* Conductivity SN = 7809
* System UpLoad Time = Aug 05 2019 17:59:04
* <ApplicationData>
* <Seaterm232>
* <SoftwareVersion>2.8.0.119</SoftwareVersion>
* <BuildDate>07-Nov-2018</BuildDate>
* </Seaterm232>
* </ApplicationData>
* cast   3 05 Aug 2019 11:47:15 samples 804 to 1364, avg = 1, stop = mag switch
# nquan = 16
# nvalues = 463                         
# units = specified
# name 0 = depFM: Depth [fresh water, m]
# name 1 = dz/dtM: Descent Rate [m/s]
# name 2 = sbeox0Mg/L: Oxygen, SBE 43 [mg/l]
# name 3 = sbeox0PS: Oxygen, SBE 43 [% saturation]
# name 4 = specc: Specific Conductance [uS/cm]
# name 5 = c0uS/cm: Conductivity [uS/cm]
# name 6 = flECO-AFL: Fluorescence, WET Labs ECO-AFL/FL [mg/m^3]
# name 7 = ph: pH
# name 8 = orp: Oxidation Reduction Potential [mV]
# name 9 = par/sat/log: PAR/Logarithmic, Satlantic
# name 10 = turbWETntu0: Turbidity, WET Labs ECO [NTU]
# name 11 = prdM: Pressure, Strain Gauge [db]
# name 12 = prdE: Pressure, Strain Gauge [psi]
# name 13 = tv290C: Temperature [ITS-90, deg C]
# name 14 = density00: Density [density, kg/m^3]
# name 15 = flag:  0.000e+00
# span 0 =     -0.581,      5.229       
# span 1 =     -0.093,      0.343       
# span 2 =     0.1011,     8.7793       
# span 3 =      0.940,    109.077       
# span 4 =      1.444,     72.083       
# span 5 =   1.418283,  56.399368       
# span 6 =    -0.1280,     8.8842       
# span 7 =      6.874,      8.519       
# span 8 =   136.4639,   913.3452       
# span 9 = 4.7011e-01, 6.0707e+02       
# span 10 =    -0.5461,     7.1907      
# span 11 =     -0.570,      5.128      
# span 12 =     -0.827,      7.438      
# span 13 =    11.9422,    26.4877      
# span 14 =   996.6726,   999.5493      
# span 15 = 0.0000e+00, 0.0000e+00      
# interval = seconds: 0.25
# start_time = Aug 05 2019 11:47:15 [Instrument's time stamp, header]
# bad_flag = -9.990e-29
# <Sensors count="9" >
#   <sensor Channel="1" >
#     <!-- Count, Temperature -->
#     <TemperatureSensor SensorID="58" >
#       <SerialNumber>7809</SerialNumber>
#       <CalibrationDate>24-Mar-19</CalibrationDate>
#       <A0>1.21792325e-003</A0>
#       <A1>2.81669265e-004</A1>
#       <A2>-1.60333336e-006</A2>
#       <A3>1.98414625e-007</A3>
#       <Slope>1.00000000</Slope>
#       <Offset>0.0000</Offset>
#     </TemperatureSensor>
#   </sensor>
#   <sensor Channel="2" >
#     <!-- Frequency 0, Conductivity -->
#     <ConductivitySensor SensorID="3" >
#       <SerialNumber>7809</SerialNumber>
#       <CalibrationDate>24-Mar-19</CalibrationDate>
#       <UseG_J>1</UseG_J>
#       <!-- Cell const and series R are applicable only for wide range sensors. -->
#       <SeriesR>0.0000</SeriesR>
#       <CellConst>2000.0000</CellConst>
#       <ConductivityType>0</ConductivityType>
#       <Coefficients equation="0" >
#         <A>0.00000000e+000</A>
#         <B>0.00000000e+000</B>
#         <C>0.00000000e+000</C>
#         <D>0.00000000e+000</D>
#         <M>0.0</M>
#         <CPcor>-9.57000000e-008</CPcor>
#       </Coefficients>
#       <Coefficients equation="1" >
#         <G>-1.00589325e+000</G>
#         <H>1.26816302e-001</H>
#         <I>-1.51560448e-004</I>
#         <J>2.67137274e-005</J>
#         <CPcor>-9.57000000e-008</CPcor>
#         <CTcor>3.2500e-006</CTcor>
#         <!-- WBOTC not applicable unless ConductivityType = 1. -->
#         <WBOTC>0.00000000e+000</WBOTC>
#       </Coefficients>
#       <Slope>1.00000000</Slope>
#       <Offset>0.00000</Offset>
#     </ConductivitySensor>
#   </sensor>
#   <sensor Channel="3" >
#     <!-- Count, Pressure, Strain Gauge -->
#     <PressureSensor SensorID="46" >
#       <SerialNumber>7809</SerialNumber>
#       <CalibrationDate>11-Mar-19</CalibrationDate>
#       <PA0>4.56561833e-002</PA0>
#       <PA1>4.85095118e-004</PA1>
#       <PA2>-2.88327090e-012</PA2>
#       <PTEMPA0>-5.48784562e+001</PTEMPA0>
#       <PTEMPA1>5.53756816e+001</PTEMPA1>
#       <PTEMPA2>-5.86727098e-001</PTEMPA2>
#       <PTCA0>5.25246745e+005</PTCA0>
#       <PTCA1>1.22304214e+001</PTCA1>
#       <PTCA2>-3.56745036e-001</PTCA2>
#       <PTCB0>2.51668750e+001</PTCB0>
#       <PTCB1>3.75000000e-004</PTCB1>
#       <PTCB2>0.00000000e+000</PTCB2>
#       <Offset>0.000000</Offset>
#     </PressureSensor>
#   </sensor>
#   <sensor Channel="4" >
#     <!-- A/D voltage 0, Oxygen, SBE 43 -->
#     <OxygenSensor SensorID="38" >
#       <SerialNumber>0434</SerialNumber>
#       <CalibrationDate>13-Apr-19</CalibrationDate>
#       <Use2007Equation>1</Use2007Equation>
#       <CalibrationCoefficients equation="0" >
#         <!-- Coefficients for Owens-Millard equation. -->
#         <Boc>0.0000</Boc>
#         <Soc>0.0000e+000</Soc>
#         <offset>0.0000</offset>
#         <Pcor>0.00e+000</Pcor>
#         <Tcor>0.0000</Tcor>
#         <Tau>0.0</Tau>
#       </CalibrationCoefficients>
#       <CalibrationCoefficients equation="1" >
#         <!-- Coefficients for Sea-Bird equation - SBE calibration in 2007 and later. -->
#         <Soc>4.2007e-001</Soc>
#         <offset>-0.6109</offset>
#         <A>-4.3656e-003</A>
#         <B> 1.7017e-004</B>
#         <C>-2.5341e-006</C>
#         <D0> 2.5826e+000</D0>
#         <D1> 1.92634e-004</D1>
#         <D2>-4.64803e-002</D2>
#         <E> 3.6000e-002</E>
#         <Tau20> 1.1800</Tau20>
#         <H1>-3.3000e-002</H1>
#         <H2> 5.0000e+003</H2>
#         <H3> 1.4500e+003</H3>
#       </CalibrationCoefficients>
#     </OxygenSensor>
#   </sensor>
#   <sensor Channel="5" >
#     <!-- A/D voltage 1, PAR/Logarithmic, Satlantic -->
#     <PARLog_SatlanticSensor SensorID="76" >
#       <SerialNumber>1122</SerialNumber>
#       <CalibrationDate>08-May-2019</CalibrationDate>
#       <a0>9.7456e-001</a0>
#       <a1>8.1640e-001</a1>
#       <Im>1.3589e+000</Im>
#       <Multiplier>1.0000e+000</Multiplier>
#     </PARLog_SatlanticSensor>
#   </sensor>
#   <sensor Channel="6" >
#     <!-- A/D voltage 2, pH -->
#     <pH_Sensor SensorID="43" >
#       <SerialNumber>0363</SerialNumber>
#       <CalibrationDate>15-Apr-19</CalibrationDate>
#       <Slope>4.5952</Slope>
#       <Offset>2.5370</Offset>
#     </pH_Sensor>
#   </sensor>
#   <sensor Channel="7" >
#     <!-- A/D voltage 3, Oxidation Reduction Potential -->
#     <OxidationReductionPotentialSensor SensorID="41" >
#       <SerialNumber>0363</SerialNumber>
#       <CalibrationDate>15-Apr-19</CalibrationDate>
#       <B>2.499480</B>
#       <M>-0.496195</M>
#       <Offset>0.0</Offset>
#     </OxidationReductionPotentialSensor>
#   </sensor>
#   <sensor Channel="8" >
#     <!-- A/D voltage 4, Fluorometer, WET Labs ECO-AFL/FL -->
#     <FluoroWetlabECO_AFL_FL_Sensor SensorID="20" >
#       <SerialNumber>FLNTURT-2496</SerialNumber>
#       <CalibrationDate>08-May-2019</CalibrationDate>
#       <ScaleFactor>5.00000000e+001</ScaleFactor>
#       <!-- Dark output -->
#       <Vblank>0.0550</Vblank>
#     </FluoroWetlabECO_AFL_FL_Sensor>
#   </sensor>
#   <sensor Channel="9" >
#     <!-- A/D voltage 5, Turbidity Meter, WET Labs, ECO-NTU -->
#     <TurbidityMeter SensorID="67" >
#       <SerialNumber>FLNTURT-2496</SerialNumber>
#       <CalibrationDate>08-May-2019</CalibrationDate>
#       <ScaleFactor>189.000000</ScaleFactor>
#       <!-- Dark output -->
#       <DarkVoltage>0.071000</DarkVoltage>
#     </TurbidityMeter>
#   </sensor>
# </Sensors>
# datcnv_date = Aug 05 2019 18:02:46, 7.26.7.129 [datcnv_vars = 15]
# datcnv_in = C:\DATA\080519_fcr30.hex C:\DATA\SBE19plusV2_7809.xmlcon
# datcnv_skipover = 0
# datcnv_ox_hysteresis_correction = yes
# datcnv_ox_tau_correction = yes
# filter_date = Aug 05 2019 18:03:10, 7.26.7.129
# filter_in = C:\DATA\080519_fcr30.cnv
# filter_low_pass_tc_A = 0.030
# filter_low_pass_tc_B = 0.150
# filter_low_pass_A_vars = prdM prdE tv290C density00
# filter_low_pass_B_vars = depFM dz/dtM sbeox0Mg/L sbeox0PS specc c0uS/cm flECO-AFL ph orp par/sat/log turbWETntu0
# alignctd_date = Aug 05 2019 18:03:31, 7.26.7.129
# alignctd_in = C:\DATA\080519_fcr30.cnv
# alignctd_adv = dz/dtM 1.000, sbeox0Mg/L 1.000, sbeox0PS 1.000, specc 1.000, c0uS/cm 1.000, flECO-AFL 1.000, ph 1.000, orp 1.000, turbWETntu0 1.000                                                                                 
# file_type = ascii
*END*
     -0.581 8.1609e-21     7.3700     87.716      1.536   1.508463    -0.1159      7.078   913.3452 5.9409e+02    -0.2424     -0.570     -0.826    24.0950   997.2807 0.0000e+00
     -0.581 8.9769e-20     7.3698     87.714      1.548   1.519756    -0.1224      7.093   904.5302 5.8569e+02    -0.2333     -0.569     -0.826    24.0957   997.2805 0.0000e+00
     -0.581 9.8746e-19     7.3694     87.710      1.535   1.506868    -0.1266      7.103   897.1770 5.8578e+02    -0.2683     -0.570     -0.826    24.0963   997.2804 0.0000e+00
     -0.581 1.0862e-17     7.3690     87.708      1.507   1.479359    -0.1237      7.100   883.8051 5.9239e+02    -0.2722     -0.569     -0.826    24.0969   997.2802 0.0000e+00
     -0.581 1.1948e-16     7.3690     87.708      1.467   1.440590    -0.1049      7.078   864.6831 5.9211e+02    -0.2469     -0.570     -0.826    24.0977   997.2801 0.0000e+00
     -0.581 1.3143e-15     7.3703     87.724      1.444   1.418283    -0.0985      7.040   846.3133 5.7906e+02    -0.2583     -0.570     -0.826    24.0983   997.2799 0.0000e+00
     -0.581 1.4457e-14     7.3727     87.753      1.490   1.463099    -0.1072      6.984   829.0439 5.6473e+02    -0.3111     -0.570     -0.826    24.0987   997.2798 0.0000e+00
     -0.581 1.5903e-13     7.3746     87.777      1.631   1.602288    -0.1066      6.915   811.1808 5.5602e+02    -0.3931     -0.570     -0.827    24.0990   997.2797 0.0000e+00
     -0.581 1.7494e-12     7.3769     87.804      1.803   1.770607    -0.1084      6.874   792.8601 5.4319e+02    -0.4633     -0.570     -0.826    24.0995   997.2796 0.0000e+00
     -0.581 1.9243e-11     7.3795     87.836      1.885   1.850810    -0.1119      6.879   774.6177 5.2994e+02    -0.5049     -0.569     -0.826    24.0998   997.2795 0.0000e+00
     -0.581 2.1167e-10     7.3824     87.870      1.909   1.875030    -0.1047      6.909   757.2724 5.2511e+02    -0.5362     -0.570     -0.827    24.1004   997.2794 0.0000e+00
     -0.581 2.3284e-09     7.3860     87.914      1.972   1.936729    -0.1001      6.927   741.0213 5.2311e+02    -0.5461     -0.570     -0.827    24.1010   997.2792 0.0000e+00
     -0.581 2.5612e-08     7.3891     87.951      2.063   2.026534    -0.1078      6.916   727.2330 5.1681e+02    -0.5261     -0.570     -0.827    24.1013   997.2792 0.0000e+00
     -0.581 2.8173e-07     7.3906     87.971      2.176   2.137143    -0.1194      6.897   718.4140 5.0484e+02    -0.5242     -0.570     -0.826    24.1019   997.2791 0.0000e+00
     -0.581      0.000     7.3926     87.995      2.301   2.260267    -0.1280      6.895   709.3310 4.9289e+02    -0.5225     -0.570     -0.827    24.1021   997.2790 0.0000e+00
     -0.581      0.000     7.3962     88.039      2.353   2.311303    -0.1249      6.907   692.9543 4.8737e+02    -0.5056     -0.570     -0.826    24.1028   997.2788 0.0000e+00
     -0.581      0.000     7.4001     88.086      2.545   2.500761    -0.1171      6.930   667.2743 4.7847e+02    -0.5175     -0.569     -0.825    24.1028   997.2789 0.0000e+00
     -0.581      0.004     7.4011     88.106      4.952   4.867803    -0.1201      7.063   543.9843 4.5554e+02    -0.5355     -0.570     -0.826    24.1037   997.2785 0.0000e+00
     -0.581      0.020     7.3947     88.111     14.869  14.643596    -0.1093      7.393   328.8635 4.3250e+02    -0.4938     -0.570     -0.826    24.1028   997.2789 0.0000e+00
     -0.581      0.059     7.3666     88.114     28.953  28.628572    -0.0040      7.781   207.7845 4.4120e+02    -0.0123     -0.570     -0.827    24.1053   997.2782 0.0000e+00
     -0.580      0.120     7.3104     88.106     35.974  35.824730     0.1570      8.073   191.1392 4.9453e+02     0.8618     -0.568     -0.825    24.1023   997.2792 0.0000e+00
     -0.567      0.192     7.2468     88.110     36.513  36.698520     0.2326      8.262   189.2110 5.5890e+02     1.3239     -0.570     -0.827    24.1075   997.2774 0.0000e+00
     -0.516      0.261     7.1985     88.170     36.244  36.718643     0.2513      8.377   190.7516 6.0707e+02     1.3471     -0.529     -0.767    24.0996   997.2820 0.0000e+00
     -0.412      0.314     7.1754     88.338     35.967  36.639723     0.3312      8.443   178.4483 6.0607e+02     1.4049     -0.411     -0.596    24.2652   997.2479 0.0000e+00
     -0.284      0.343     7.1790     88.662     35.776  36.569744     1.1033      8.480   152.1316 5.2017e+02     2.0556     -0.272     -0.395    24.7571   997.1259 0.0000e+00
     -0.168      0.341     7.2035     89.139     35.640  36.507444     2.5120      8.501   137.4728 3.9530e+02     3.2497     -0.153     -0.222    25.2840   996.9908 0.0000e+00
     -0.079      0.306     7.2427     89.734     35.544  36.457807     3.2750      8.512   136.4639 2.9433e+02     3.9147     -0.069     -0.101    25.6963   996.8838 0.0000e+00
     -0.013      0.246     7.2926     90.406     35.478  36.413965     3.3497      8.518   137.0935 2.3957e+02     3.9673     -0.008     -0.013    25.9716   996.8112 0.0000e+00
      0.038      0.176     7.3418     91.021     35.422  36.358215     3.4497      8.519   138.2020 2.1914e+02     3.7876      0.044      0.064    26.1222   996.7714 0.0000e+00
      0.073      0.106     7.3782     91.446     35.429  36.354978     3.6172      8.518   139.6277 2.1113e+02     3.4457      0.075      0.109    26.2238   996.7442 0.0000e+00
      0.093      0.042     7.4001     91.687     35.523  36.438286     3.7002      8.514   140.9100 2.2186e+02     3.2742      0.095      0.138    26.2908   996.7263 0.0000e+00
      0.099     -0.013     7.4134     91.844     35.627  36.540333     3.6998      8.509   141.8328 2.5255e+02     3.2867      0.105      0.152    26.3241   996.7174 0.0000e+00
      0.083     -0.053     7.4234     91.996     35.647  36.573273     3.6124      8.503   142.7838 3.1036e+02     3.2367      0.089      0.130    26.3201   996.7184 0.0000e+00
      0.048     -0.078     7.4261     92.086     35.571  36.519228     3.4410      8.497   143.7191 3.7239e+02     3.1294      0.051      0.074    26.3016   996.7232 0.0000e+00
      0.006     -0.092     7.4168     92.038     35.483  36.458154     3.3528      8.490   144.4516 3.8637e+02     3.0707     -0.001     -0.002    26.2757   996.7299 0.0000e+00
     -0.022     -0.093     7.3915     91.783     35.469  36.469598     3.3444      8.485   145.1864 3.7742e+02     3.0513     -0.030     -0.044    26.2683   996.7318 0.0000e+00
     -0.035     -0.081     7.3388     91.168     35.512  36.530693     3.3139      8.480   146.0653 3.7759e+02     3.0588     -0.031     -0.045    26.2868   996.7270 0.0000e+00
     -0.050     -0.060     7.2524     90.113     35.535  36.562156     3.2610      8.475   147.0763 3.7789e+02     3.0955     -0.046     -0.066    26.3236   996.7170 0.0000e+00
     -0.070     -0.038     7.1409     88.730     35.505  36.532666     3.2240      8.470   147.9461 3.7898e+02     3.1347     -0.072     -0.104    26.3704   996.7041 0.0000e+00
     -0.084     -0.021     7.0186     87.210     35.465  36.491500     3.2228      8.466   148.4936 3.8156e+02     3.1393     -0.088     -0.128    26.4078   996.6941 0.0000e+00
     -0.085     -0.009     6.8946     85.674     35.480  36.508710     3.2287      8.462   148.9650 3.8316e+02     3.1186     -0.088     -0.127    26.4320   996.6876 0.0000e+00
     -0.075      0.001     6.7787     84.244     35.515  36.550347     3.2253      8.459   149.6016 3.8247e+02     3.1126     -0.073     -0.106    26.4427   996.6847 0.0000e+00
     -0.066      0.010     6.6841     83.072     35.514  36.550633     3.2260      8.456   150.3400 3.7935e+02     3.0999     -0.061     -0.090    26.4411   996.6852 0.0000e+00
     -0.064      0.013     6.6244     82.327     35.479  36.512171     3.2281      8.453   151.0091 3.7496e+02     3.0644     -0.061     -0.089    26.4377   996.6861 0.0000e+00
     -0.065      0.010     6.6188     82.258     35.434  36.466127     3.2246      8.451   151.4969 3.7010e+02     3.0430     -0.065     -0.094    26.4429   996.6847 0.0000e+00
     -0.064      0.005     6.6716     82.925     35.401  36.438226     3.2356      8.448   151.9369 3.6435e+02     3.0381     -0.064     -0.093    26.4524   996.6822 0.0000e+00
     -0.060      0.001     6.7584     84.019     35.385  36.428721     3.2663      8.444   152.5424 3.6058e+02     3.0374     -0.058     -0.085    26.4555   996.6813 0.0000e+00
     -0.058 1.1851e-07     6.8503     85.172     35.367  36.414680     3.2919      8.442   153.1392 3.6135e+02     3.0669     -0.055     -0.080    26.4490   996.6831 0.0000e+00
     -0.061      0.000     6.9277     86.136     35.348  36.395414     3.3025      8.439   153.5606 3.6496e+02     3.1002     -0.060     -0.087    26.4472   996.6835 0.0000e+00
     -0.064      0.000     6.9763     86.732     35.342  36.386186     3.3076      8.437   153.9380 3.6921e+02     3.0800     -0.064     -0.093    26.4577   996.6807 0.0000e+00
     -0.065      0.000     6.9868     86.855     35.326  36.366580     3.3193      8.435   154.4331 3.7184e+02     3.0529     -0.064     -0.093    26.4698   996.6775 0.0000e+00
     -0.063      0.002     6.9585     86.501     35.309  36.348760     3.3309      8.433   154.9867 3.7147e+02     3.0664     -0.062     -0.090    26.4776   996.6753 0.0000e+00
     -0.061      0.004     6.8975     85.751     35.318  36.361133     3.3449      8.432   155.5552 3.6820e+02     3.0798     -0.060     -0.087    26.4779   996.6753 0.0000e+00
     -0.060      0.005     6.8165     84.754     35.342  36.389248     3.3929      8.432   156.2301 3.6364e+02     3.0512     -0.059     -0.085    26.4709   996.6772 0.0000e+00
     -0.059      0.004     6.7318     83.709     35.383  36.434814     3.4689      8.431   156.8660 3.6049e+02     3.0155     -0.057     -0.084    26.4634   996.6791 0.0000e+00
     -0.057      0.003     6.6577     82.792     35.413  36.467783     3.5177      8.429   157.3928 3.5983e+02     3.0420     -0.055     -0.081    26.4636   996.6791 0.0000e+00
     -0.056      0.002     6.6021     82.099     35.416  36.470522     3.5322      8.426   157.9542 3.6116e+02     3.1089     -0.054     -0.078    26.4695   996.6775 0.0000e+00
     -0.056      0.001     6.5636     81.612     35.416  36.467924     3.5406      8.424   158.4915 3.6385e+02     3.1359     -0.054     -0.078    26.4760   996.6758 0.0000e+00
     -0.057      0.000     6.5360     81.257     35.391  36.436360     3.5407      8.423   158.8985 3.6641e+02     3.1068     -0.056     -0.080    26.4819   996.6742 0.0000e+00
     -0.057     -0.002     6.5135     80.968     35.367  36.406240     3.5337      8.421   159.2616 3.6711e+02     3.0833     -0.056     -0.081    26.4848   996.6734 0.0000e+00
     -0.057     -0.002     6.4977     80.770     35.382  36.421095     3.5338      8.420   159.6980 3.6570e+02     3.0823     -0.056     -0.081    26.4845   996.6736 0.0000e+00
     -0.057     -0.001     6.4959     80.752     35.384  36.425555     3.5501      8.418   160.2175 3.6336e+02     3.1277     -0.055     -0.080    26.4793   996.6749 0.0000e+00
     -0.058      0.001     6.5099     80.933     35.353  36.396695     3.5749      8.417   160.8108 3.6115e+02     3.2389     -0.056     -0.082    26.4688   996.6777 0.0000e+00
     -0.058      0.001     6.5417     81.335     35.343  36.389514     3.5910      8.416   161.3653 3.5982e+02     3.3129     -0.058     -0.084    26.4602   996.6800 0.0000e+00
