* Sea-Bird SBE19plus  Data File:
* FileName = C:\DATA\080819_FCR50_0001.hex
* Software version 2.8.0.119 SB_Terminal.dll
* Temperature SN = 7809
* Conductivity SN = 7809
* System UpLoad Time = Aug 08 2019 09:43:23
* <ApplicationData>
* <Seaterm232>
* <SoftwareVersion>2.8.0.119</SoftwareVersion>
* <BuildDate>07-Nov-2018</BuildDate>
* </Seaterm232>
* </ApplicationData>
* cast   1 08 Aug 2019 09:30:01 samples 1 to 1082, avg = 1, stop = mag switch
# nquan = 16
# nvalues = 869                         
# units = specified
# name 0 = depFM: Depth [fresh water, m]
# name 1 = dz/dtM: Descent Rate [m/s]
# name 2 = sbeox0Mg/L: Oxygen, SBE 43 [mg/l]
# name 3 = sbeox0PS: Oxygen, SBE 43 [% saturation]
# name 4 = specc: Specific Conductance [uS/cm]
# name 5 = c0uS/cm: Conductivity [uS/cm]
# name 6 = flECO-AFL: Fluorescence, WET Labs ECO-AFL/FL [mg/m^3]
# name 7 = ph: pH
# name 8 = orp: Oxidation Reduction Potential [mV]
# name 9 = par/sat/log: PAR/Logarithmic, Satlantic
# name 10 = turbWETntu0: Turbidity, WET Labs ECO [NTU]
# name 11 = prdM: Pressure, Strain Gauge [db]
# name 12 = prdE: Pressure, Strain Gauge [psi]
# name 13 = tv290C: Temperature [ITS-90, deg C]
# name 14 = density00: Density [density, kg/m^3]
# name 15 = flag:  0.000e+00
# span 0 =     -0.631,      9.661       
# span 1 =     -0.369,      0.344       
# span 2 =     0.0731,     8.9817       
# span 3 =      0.701,    110.117       
# span 4 =      0.803,    136.697       
# span 5 =   0.799799, 100.156762       
# span 6 =    -0.4090,     4.8153       
# span 7 =      6.726,      9.299       
# span 8 =   160.1170,  1163.7607       
# span 9 = 1.2355e-01, 1.3426e+03       
# span 10 =    -1.6296,   173.7293      
# span 11 =     -0.620,      9.475      
# span 12 =     -0.900,     13.742      
# span 13 =    11.4111,    25.7385      
# span 14 =   996.8705,   999.6425      
# span 15 = 0.0000e+00, 0.0000e+00      
# interval = seconds: 0.25
# start_time = Aug 08 2019 09:30:01 [Instrument's time stamp, header]
# bad_flag = -9.990e-29
# <Sensors count="9" >
#   <sensor Channel="1" >
#     <!-- Count, Temperature -->
#     <TemperatureSensor SensorID="58" >
#       <SerialNumber>7809</SerialNumber>
#       <CalibrationDate>24-Mar-19</CalibrationDate>
#       <A0>1.21792325e-003</A0>
#       <A1>2.81669265e-004</A1>
#       <A2>-1.60333336e-006</A2>
#       <A3>1.98414625e-007</A3>
#       <Slope>1.00000000</Slope>
#       <Offset>0.0000</Offset>
#     </TemperatureSensor>
#   </sensor>
#   <sensor Channel="2" >
#     <!-- Frequency 0, Conductivity -->
#     <ConductivitySensor SensorID="3" >
#       <SerialNumber>7809</SerialNumber>
#       <CalibrationDate>24-Mar-19</CalibrationDate>
#       <UseG_J>1</UseG_J>
#       <!-- Cell const and series R are applicable only for wide range sensors. -->
#       <SeriesR>0.0000</SeriesR>
#       <CellConst>2000.0000</CellConst>
#       <ConductivityType>0</ConductivityType>
#       <Coefficients equation="0" >
#         <A>0.00000000e+000</A>
#         <B>0.00000000e+000</B>
#         <C>0.00000000e+000</C>
#         <D>0.00000000e+000</D>
#         <M>0.0</M>
#         <CPcor>-9.57000000e-008</CPcor>
#       </Coefficients>
#       <Coefficients equation="1" >
#         <G>-1.00589325e+000</G>
#         <H>1.26816302e-001</H>
#         <I>-1.51560448e-004</I>
#         <J>2.67137274e-005</J>
#         <CPcor>-9.57000000e-008</CPcor>
#         <CTcor>3.2500e-006</CTcor>
#         <!-- WBOTC not applicable unless ConductivityType = 1. -->
#         <WBOTC>0.00000000e+000</WBOTC>
#       </Coefficients>
#       <Slope>1.00000000</Slope>
#       <Offset>0.00000</Offset>
#     </ConductivitySensor>
#   </sensor>
#   <sensor Channel="3" >
#     <!-- Count, Pressure, Strain Gauge -->
#     <PressureSensor SensorID="46" >
#       <SerialNumber>7809</SerialNumber>
#       <CalibrationDate>11-Mar-19</CalibrationDate>
#       <PA0>4.56561833e-002</PA0>
#       <PA1>4.85095118e-004</PA1>
#       <PA2>-2.88327090e-012</PA2>
#       <PTEMPA0>-5.48784562e+001</PTEMPA0>
#       <PTEMPA1>5.53756816e+001</PTEMPA1>
#       <PTEMPA2>-5.86727098e-001</PTEMPA2>
#       <PTCA0>5.25246745e+005</PTCA0>
#       <PTCA1>1.22304214e+001</PTCA1>
#       <PTCA2>-3.56745036e-001</PTCA2>
#       <PTCB0>2.51668750e+001</PTCB0>
#       <PTCB1>3.75000000e-004</PTCB1>
#       <PTCB2>0.00000000e+000</PTCB2>
#       <Offset>0.000000</Offset>
#     </PressureSensor>
#   </sensor>
#   <sensor Channel="4" >
#     <!-- A/D voltage 0, Oxygen, SBE 43 -->
#     <OxygenSensor SensorID="38" >
#       <SerialNumber>0434</SerialNumber>
#       <CalibrationDate>13-Apr-19</CalibrationDate>
#       <Use2007Equation>1</Use2007Equation>
#       <CalibrationCoefficients equation="0" >
#         <!-- Coefficients for Owens-Millard equation. -->
#         <Boc>0.0000</Boc>
#         <Soc>0.0000e+000</Soc>
#         <offset>0.0000</offset>
#         <Pcor>0.00e+000</Pcor>
#         <Tcor>0.0000</Tcor>
#         <Tau>0.0</Tau>
#       </CalibrationCoefficients>
#       <CalibrationCoefficients equation="1" >
#         <!-- Coefficients for Sea-Bird equation - SBE calibration in 2007 and later. -->
#         <Soc>4.2007e-001</Soc>
#         <offset>-0.6109</offset>
#         <A>-4.3656e-003</A>
#         <B> 1.7017e-004</B>
#         <C>-2.5341e-006</C>
#         <D0> 2.5826e+000</D0>
#         <D1> 1.92634e-004</D1>
#         <D2>-4.64803e-002</D2>
#         <E> 3.6000e-002</E>
#         <Tau20> 1.1800</Tau20>
#         <H1>-3.3000e-002</H1>
#         <H2> 5.0000e+003</H2>
#         <H3> 1.4500e+003</H3>
#       </CalibrationCoefficients>
#     </OxygenSensor>
#   </sensor>
#   <sensor Channel="5" >
#     <!-- A/D voltage 1, PAR/Logarithmic, Satlantic -->
#     <PARLog_SatlanticSensor SensorID="76" >
#       <SerialNumber>1122</SerialNumber>
#       <CalibrationDate>08-May-2019</CalibrationDate>
#       <a0>9.7456e-001</a0>
#       <a1>8.1640e-001</a1>
#       <Im>1.3589e+000</Im>
#       <Multiplier>1.0000e+000</Multiplier>
#     </PARLog_SatlanticSensor>
#   </sensor>
#   <sensor Channel="6" >
#     <!-- A/D voltage 2, pH -->
#     <pH_Sensor SensorID="43" >
#       <SerialNumber>0363</SerialNumber>
#       <CalibrationDate>15-Apr-19</CalibrationDate>
#       <Slope>4.5952</Slope>
#       <Offset>2.5370</Offset>
#     </pH_Sensor>
#   </sensor>
#   <sensor Channel="7" >
#     <!-- A/D voltage 3, Oxidation Reduction Potential -->
#     <OxidationReductionPotentialSensor SensorID="41" >
#       <SerialNumber>0363</SerialNumber>
#       <CalibrationDate>15-Apr-19</CalibrationDate>
#       <B>2.499480</B>
#       <M>-0.496195</M>
#       <Offset>0.0</Offset>
#     </OxidationReductionPotentialSensor>
#   </sensor>
#   <sensor Channel="8" >
#     <!-- A/D voltage 4, Fluorometer, WET Labs ECO-AFL/FL -->
#     <FluoroWetlabECO_AFL_FL_Sensor SensorID="20" >
#       <SerialNumber>FLNTURT-2496</SerialNumber>
#       <CalibrationDate>08-May-2019</CalibrationDate>
#       <ScaleFactor>5.00000000e+001</ScaleFactor>
#       <!-- Dark output -->
#       <Vblank>0.0550</Vblank>
#     </FluoroWetlabECO_AFL_FL_Sensor>
#   </sensor>
#   <sensor Channel="9" >
#     <!-- A/D voltage 5, Turbidity Meter, WET Labs, ECO-NTU -->
#     <TurbidityMeter SensorID="67" >
#       <SerialNumber>FLNTURT-2496</SerialNumber>
#       <CalibrationDate>08-May-2019</CalibrationDate>
#       <ScaleFactor>189.000000</ScaleFactor>
#       <!-- Dark output -->
#       <DarkVoltage>0.071000</DarkVoltage>
#     </TurbidityMeter>
#   </sensor>
# </Sensors>
# datcnv_date = Aug 08 2019 09:44:41, 7.26.7.129 [datcnv_vars = 15]
# datcnv_in = C:\DATA\080819_fcr50.hex C:\DATA\SBE19plusV2_7809.xmlcon
# datcnv_skipover = 0
# datcnv_ox_hysteresis_correction = yes
# datcnv_ox_tau_correction = yes
# filter_date = Aug 08 2019 09:45:08, 7.26.7.129
# filter_in = C:\DATA\080819_fcr50.cnv
# filter_low_pass_tc_A = 0.030
# filter_low_pass_tc_B = 0.150
# filter_low_pass_A_vars = prdM prdE tv290C density00
# filter_low_pass_B_vars = depFM dz/dtM sbeox0Mg/L sbeox0PS specc c0uS/cm flECO-AFL ph orp par/sat/log turbWETntu0
# alignctd_date = Aug 08 2019 09:45:26, 7.26.7.129
# alignctd_in = C:\DATA\080819_fcr50.cnv
# alignctd_adv = dz/dtM 1.000, sbeox0Mg/L 1.000, sbeox0PS 1.000, specc 1.000, c0uS/cm 1.000, flECO-AFL 1.000, ph 1.000, orp 1.000, turbWETntu0 1.000                                                                                 
# file_type = ascii
*END*
     -0.630 1.4541e-30     7.7122     92.925      1.134   1.129467    -0.1311      6.799  1163.7607 1.2496e+03    -1.6028     -0.618     -0.896    24.7570   997.1146 0.0000e+00
     -0.630 1.5995e-29     7.7116     92.917      1.188   1.182926    -0.1172      6.791  1157.1125 1.2487e+03    -1.6296     -0.618     -0.896    24.7577   997.1144 0.0000e+00
     -0.630 1.7595e-28     7.7123     92.927      1.261   1.254829    -0.1150      6.787  1150.8820 1.2506e+03    -1.6127     -0.618     -0.896    24.7583   997.1143 0.0000e+00
     -0.630 1.9354e-27     7.7137     92.944      1.181   1.175148    -0.1657      6.786  1146.5045 1.2531e+03    -1.2995     -0.618     -0.896    24.7589   997.1141 0.0000e+00
     -0.630 2.1290e-26     7.7136     92.944      1.048   1.043196    -0.2527      6.783  1145.8285 1.2546e+03    -0.6942     -0.618     -0.896    24.7593   997.1140 0.0000e+00
     -0.631 2.3419e-25     7.7136     92.944      0.994   0.989983    -0.3000      6.785  1139.8690 1.2550e+03    -0.3562     -0.619     -0.897    24.7594   997.1140 0.0000e+00
     -0.631 2.5760e-24     7.7137     92.948      1.043   1.038640    -0.2956      6.802  1116.0053 1.2529e+03    -0.3271     -0.618     -0.897    24.7597   997.1139 0.0000e+00
     -0.631 2.8336e-23     7.7132     92.943      1.130   1.124619    -0.2421      6.840  1061.5515 1.2516e+03    -0.4734     -0.618     -0.897    24.7602   997.1138 0.0000e+00
     -0.631 3.1170e-22     7.7128     92.939      1.020   1.015780    -0.1652      6.883   991.5144 1.2502e+03    -0.7810     -0.618     -0.896    24.7609   997.1136 0.0000e+00
     -0.631 3.4287e-21     7.7125     92.936      0.803   0.799799    -0.1285      6.900   950.8808 1.2264e+03    -0.9656     -0.618     -0.897    24.7614   997.1134 0.0000e+00
     -0.631 3.7716e-20     7.7129     92.940      0.925   0.920874    -0.1283      6.886   948.6553 9.5966e+02    -0.9685     -0.618     -0.897    24.7620   997.1133 0.0000e+00
     -0.631 4.1487e-19     7.7139     92.951      1.409   1.402550    -0.2058      6.863   958.4104 4.7137e+02    -0.7835     -0.619     -0.897    24.7630   997.1131 0.0000e+00
     -0.631 4.5636e-18     7.7140     92.950      1.625   1.618207    -0.3466      6.826   987.9524 2.1162e+02    -0.4654     -0.618     -0.897    24.7637   997.1129 0.0000e+00
     -0.631 5.0200e-17     7.7130     92.938      1.380   1.374098    -0.4090      6.762  1040.4148 1.9390e+02    -0.3011     -0.618     -0.897    24.7644   997.1127 0.0000e+00
     -0.631 5.5220e-16     7.7131     92.939      1.181   1.175602    -0.4041      6.726  1071.2443 1.8595e+02    -0.3056     -0.618     -0.897    24.7644   997.1127 0.0000e+00
     -0.631 6.0742e-15     7.7141     92.954      1.124   1.119056    -0.3399      6.746  1069.5518 1.7401e+02    -0.3554     -0.619     -0.898    24.7634   997.1130 0.0000e+00
     -0.631 6.6816e-14     7.7141     92.955      1.075   1.070565    -0.2044      6.795  1052.3875 1.6830e+02    -0.4119     -0.619     -0.898    24.7620   997.1133 0.0000e+00
     -0.631 7.3497e-13     7.7129     92.941      1.101   1.096180    -0.1282      6.839  1028.9943 1.7863e+02    -0.4648     -0.618     -0.897    24.7614   997.1134 0.0000e+00
     -0.631 8.0847e-12     7.7123     92.936      1.180   1.175321    -0.1198      6.828  1027.2721 2.8295e+02    -0.5038     -0.618     -0.897    24.7617   997.1134 0.0000e+00
     -0.631 8.8932e-11     7.7131     92.946      1.209   1.203771    -0.1116      6.783  1046.7077 5.6087e+02    -0.4566     -0.619     -0.898    24.7622   997.1133 0.0000e+00
     -0.631 9.7825e-10     7.7135     92.951      1.128   1.123358    -0.1077      6.775  1054.2245 7.3302e+02    -0.3528     -0.619     -0.897    24.7632   997.1130 0.0000e+00
     -0.631 1.0761e-08     7.7134     92.950      1.031   1.026745    -0.1068      6.793  1050.3589 7.6039e+02    -0.2975     -0.618     -0.896    24.7638   997.1128 0.0000e+00
     -0.631 1.1837e-07     7.7129     92.945      0.990   0.986043    -0.1094      6.806  1045.9136 9.6912e+02    -0.2796     -0.619     -0.898    24.7647   997.1126 0.0000e+00
     -0.631      0.000     7.7119     92.931      1.016   1.011387    -0.1227      6.816  1037.3015 9.6066e+02    -0.2666     -0.619     -0.898    24.7654   997.1124 0.0000e+00
     -0.630      0.000     7.7119     92.930      1.084   1.079727    -0.1282      6.822  1029.0863 7.9974e+02    -0.3048     -0.618     -0.896    24.7660   997.1122 0.0000e+00
     -0.630      0.000     7.7135     92.946      1.184   1.178744    -0.1155      6.825  1026.3431 1.0434e+03    -0.3807     -0.618     -0.896    24.7659   997.1124 0.0000e+00
     -0.630      0.002     7.7147     92.955      1.964   1.955162    -0.0985      6.841  1052.5736 1.2875e+03    -0.3657     -0.618     -0.898    24.7666   997.1120 0.0000e+00
     -0.630      0.014     7.7130     92.942     10.385  10.340602     0.0076      7.050   876.6346 1.2930e+03     0.2048     -0.617     -0.895    24.7652   997.1126 0.0000e+00
     -0.630      0.055     7.7030     92.927     26.292  26.216982     1.2455      7.607   431.0082 1.0274e+03     6.7798     -0.619     -0.898    24.7661   997.1121 0.0000e+00
     -0.630      0.127     7.6809     92.942     35.567  35.567103     3.5289      8.272   172.5698 7.7740e+02    18.8966     -0.616     -0.893    24.7619   997.1136 0.0000e+00
     -0.625      0.208     7.6592     93.049     36.544  36.697109     4.7699      8.753   160.1170 1.0413e+03    25.5156     -0.620     -0.900    24.7624   997.1127 0.0000e+00
     -0.582      0.276     7.6592     93.357     36.298  36.579709     4.8153      9.036   164.7204 1.3330e+03    26.3118     -0.608     -0.883    24.7481   997.1176 0.0000e+00
     -0.461      0.322     7.6855     93.869     36.010  36.369375     4.1037      9.187   168.2595 1.3426e+03    28.5567     -0.471     -0.683    24.7707   997.1199 0.0000e+00
     -0.300      0.344     7.7285     94.502     35.845  36.248661     2.7887      9.261   171.3314 1.2897e+03    32.5688     -0.271     -0.393    24.9648   997.0732 0.0000e+00
     -0.179      0.339     7.7810     95.210     35.832  36.262717     2.0772      9.292   173.8997 1.2681e+03    34.7086     -0.149     -0.216    25.2252   997.0060 0.0000e+00
     -0.118      0.302     7.8392     95.964     35.837  36.285473     2.0215      9.299   175.4800 1.2576e+03    34.2744     -0.113     -0.164    25.4096   996.9587 0.0000e+00
     -0.077      0.243     7.8977     96.706     35.812  36.269946     2.1154      9.294   176.8444 1.0341e+03    27.4501     -0.081     -0.118    25.5109   996.9320 0.0000e+00
     -0.027      0.191     7.9505     97.364     35.803  36.265403     2.3106      9.279   178.0924 6.2792e+02    14.9546     -0.024     -0.033    25.5636   996.9186 0.0000e+00
      0.018      0.164     7.9945     97.909     35.829  36.294024     2.4303      9.257   178.9547 3.8452e+02     8.1536      0.024      0.035    25.5997   996.9094 0.0000e+00
      0.050      0.149     8.0299     98.345     35.832  36.298652     2.4534      9.236   179.7850 3.1943e+02     7.5186      0.047      0.069    25.6220   996.9036 0.0000e+00
      0.084      0.133     8.0579     98.685     35.793  36.257886     2.4604      9.217   180.7321 2.9879e+02     7.3435      0.076      0.110    25.6368   996.8999 0.0000e+00
      0.127      0.113     8.0779     98.925     35.721  36.181953     2.5835      9.198   181.7170 3.1459e+02     6.2976      0.128      0.186    25.6409   996.8991 0.0000e+00
      0.163      0.092     8.0885     99.055     35.619  36.078724     2.8243      9.181   182.5720 3.2355e+02     4.4428      0.168      0.245    25.6424   996.8988 0.0000e+00
      0.180      0.068     8.0914     99.098     35.563  36.025274     2.9526      9.170   182.9827 3.1097e+02     3.4668      0.179      0.260    25.6457   996.8980 0.0000e+00
      0.187      0.036     8.0894     99.083     35.577  36.043462     2.9731      9.160   182.9825 2.9947e+02     3.3776      0.183      0.266    25.6438   996.8986 0.0000e+00
      0.192     -0.008     8.0818     98.997     35.576  36.044764     2.9846      9.149   182.8277 3.0112e+02     3.2987      0.188      0.274    25.6378   996.9002 0.0000e+00
      0.197     -0.057     8.0583     98.715     35.506  35.977556     2.9792      9.134   182.8327 3.0774e+02     3.2005      0.195      0.284    25.6380   996.9001 0.0000e+00
      0.190     -0.107     8.0046     98.064     35.456  35.929026     2.9687      9.117   183.6452 3.0735e+02     3.1410      0.197      0.286    25.6445   996.8983 0.0000e+00
      0.157     -0.148     7.9226     97.068     35.489  35.965757     2.9532      9.097   185.0798 3.1865e+02     3.1365      0.163      0.237    25.6499   996.8968 0.0000e+00
      0.097     -0.169     7.8281     95.917     35.498  35.977392     2.8259      9.072   186.0679 5.0315e+02     3.2119      0.100      0.144    25.6539   996.8955 0.0000e+00
      0.022     -0.168     7.7388     94.831     35.461  35.942771     2.5827      9.050   186.5580 8.3120e+02     3.2989      0.021      0.031    25.6573   996.8941 0.0000e+00
     -0.047     -0.146     7.6667     93.956     35.442  35.927980     2.4486      9.031   186.9620 9.9645e+02     3.3374     -0.059     -0.085    25.6608   996.8928 0.0000e+00
     -0.085     -0.106     7.6079     93.244     35.436  35.925490     2.4451      9.016   187.3380 1.0005e+03     3.3816     -0.098     -0.142    25.6656   996.8914 0.0000e+00
     -0.089     -0.059     7.5474     92.507     35.422  35.912675     2.4881      9.002   188.0938 1.0023e+03     3.3737     -0.090     -0.130    25.6692   996.8904 0.0000e+00
     -0.079     -0.014     7.4742     91.613     35.408  35.899970     2.5691      8.990   189.3889 1.0124e+03     3.3082     -0.077     -0.110    25.6725   996.8897 0.0000e+00
     -0.070      0.017     7.3887     90.566     35.407  35.898815     2.6106      8.977   190.5213 1.0162e+03     3.2780     -0.070     -0.101    25.6794   996.8880 0.0000e+00
     -0.062      0.030     7.2918     89.376     35.408  35.898710     2.6167      8.963   191.0304 1.0121e+03     3.3031     -0.061     -0.089    25.6856   996.8864 0.0000e+00
     -0.053      0.029     7.1822     88.030     35.409  35.898700     2.7120      8.951   191.0703 9.2823e+02     3.3174     -0.053     -0.077    25.6868   996.8860 0.0000e+00
     -0.043      0.018     7.0611     86.545     35.409  35.898699     2.8795      8.941   190.7461 8.3889e+02     3.2874     -0.042     -0.062    25.6884   996.8857 0.0000e+00
     -0.035      0.000     6.9384     85.040     35.409  35.898697     2.9600      8.931   190.5523 8.8652e+02     3.2676     -0.033     -0.048    25.6898   996.8853 0.0000e+00
     -0.031     -0.020     6.8317     83.733     35.409  35.898677     2.9650      8.917   190.9643 9.6654e+02     3.2751     -0.027     -0.039    25.6872   996.8860 0.0000e+00
     -0.037     -0.037     6.7552     82.795     35.409  35.898460     2.9924      8.900   191.6833 1.0165e+03     3.3116     -0.029     -0.044    25.6850   996.8867 0.0000e+00
     -0.057     -0.047     6.7122     82.265     35.407  35.896067     3.0309      8.882   192.4476 1.0291e+03     3.3491     -0.052     -0.076    25.6851   996.8865 0.0000e+00
     -0.086     -0.049     6.6981     82.091     35.382  35.869745     3.0402      8.865   193.0641 1.0165e+03     3.3351     -0.089     -0.128    25.6858   996.8862 0.0000e+00
