* Sea-Bird SBE19plus  Data File:
* FileName = C:\DATA\081219_fcr_0001.hex
* Software version 2.8.0.119 SB_Terminal.dll
* Temperature SN = 7809
* Conductivity SN = 7809
* System UpLoad Time = Aug 12 2019 16:25:21
* <ApplicationData>
* <Seaterm232>
* <SoftwareVersion>2.8.0.119</SoftwareVersion>
* <BuildDate>07-Nov-2018</BuildDate>
* </Seaterm232>
* </ApplicationData>
* cast   1 12 Aug 2019 11:55:37 samples 1 to 553, avg = 1, stop = mag switch
# nquan = 16
# nvalues = 505                         
# units = specified
# name 0 = depFM: Depth [fresh water, m]
# name 1 = dz/dtM: Descent Rate [m/s]
# name 2 = sbeox0Mg/L: Oxygen, SBE 43 [mg/l]
# name 3 = sbeox0PS: Oxygen, SBE 43 [% saturation]
# name 4 = specc: Specific Conductance [uS/cm]
# name 5 = c0uS/cm: Conductivity [uS/cm]
# name 6 = flECO-AFL: Fluorescence, WET Labs ECO-AFL/FL [mg/m^3]
# name 7 = ph: pH
# name 8 = orp: Oxidation Reduction Potential [mV]
# name 9 = par/sat/log: PAR/Logarithmic, Satlantic
# name 10 = turbWETntu0: Turbidity, WET Labs ECO [NTU]
# name 11 = prdM: Pressure, Strain Gauge [db]
# name 12 = prdE: Pressure, Strain Gauge [psi]
# name 13 = tv290C: Temperature [ITS-90, deg C]
# name 14 = density00: Density [density, kg/m^3]
# name 15 = flag:  0.000e+00
# span 0 =     -0.573,      2.194       
# span 1 =     -0.019,      0.179       
# span 2 =     4.4690,    10.7009       
# span 3 =     52.532,    133.112       
# span 4 =      0.471,     39.289       
# span 5 =   0.490909,  38.061473       
# span 6 =    -0.7636,     6.3517       
# span 7 =      6.788,      9.226       
# span 8 =   182.0405,   860.3754       
# span 9 = 6.1252e+01, 2.3741e+03       
# span 10 =    -0.5037,    30.7201      
# span 11 =     -0.562,      2.151      
# span 12 =     -0.816,      3.120      
# span 13 =    23.4256,    27.1115      
# span 14 =   996.4911,   997.4671      
# span 15 = 0.0000e+00, 0.0000e+00      
# interval = seconds: 0.25
# start_time = Aug 12 2019 11:55:37 [Instrument's time stamp, header]
# bad_flag = -9.990e-29
# <Sensors count="9" >
#   <sensor Channel="1" >
#     <!-- Count, Temperature -->
#     <TemperatureSensor SensorID="58" >
#       <SerialNumber>7809</SerialNumber>
#       <CalibrationDate>24-Mar-19</CalibrationDate>
#       <A0>1.21792325e-003</A0>
#       <A1>2.81669265e-004</A1>
#       <A2>-1.60333336e-006</A2>
#       <A3>1.98414625e-007</A3>
#       <Slope>1.00000000</Slope>
#       <Offset>0.0000</Offset>
#     </TemperatureSensor>
#   </sensor>
#   <sensor Channel="2" >
#     <!-- Frequency 0, Conductivity -->
#     <ConductivitySensor SensorID="3" >
#       <SerialNumber>7809</SerialNumber>
#       <CalibrationDate>24-Mar-19</CalibrationDate>
#       <UseG_J>1</UseG_J>
#       <!-- Cell const and series R are applicable only for wide range sensors. -->
#       <SeriesR>0.0000</SeriesR>
#       <CellConst>2000.0000</CellConst>
#       <ConductivityType>0</ConductivityType>
#       <Coefficients equation="0" >
#         <A>0.00000000e+000</A>
#         <B>0.00000000e+000</B>
#         <C>0.00000000e+000</C>
#         <D>0.00000000e+000</D>
#         <M>0.0</M>
#         <CPcor>-9.57000000e-008</CPcor>
#       </Coefficients>
#       <Coefficients equation="1" >
#         <G>-1.00589325e+000</G>
#         <H>1.26816302e-001</H>
#         <I>-1.51560448e-004</I>
#         <J>2.67137274e-005</J>
#         <CPcor>-9.57000000e-008</CPcor>
#         <CTcor>3.2500e-006</CTcor>
#         <!-- WBOTC not applicable unless ConductivityType = 1. -->
#         <WBOTC>0.00000000e+000</WBOTC>
#       </Coefficients>
#       <Slope>1.00000000</Slope>
#       <Offset>0.00000</Offset>
#     </ConductivitySensor>
#   </sensor>
#   <sensor Channel="3" >
#     <!-- Count, Pressure, Strain Gauge -->
#     <PressureSensor SensorID="46" >
#       <SerialNumber>7809</SerialNumber>
#       <CalibrationDate>11-Mar-19</CalibrationDate>
#       <PA0>4.56561833e-002</PA0>
#       <PA1>4.85095118e-004</PA1>
#       <PA2>-2.88327090e-012</PA2>
#       <PTEMPA0>-5.48784562e+001</PTEMPA0>
#       <PTEMPA1>5.53756816e+001</PTEMPA1>
#       <PTEMPA2>-5.86727098e-001</PTEMPA2>
#       <PTCA0>5.25246745e+005</PTCA0>
#       <PTCA1>1.22304214e+001</PTCA1>
#       <PTCA2>-3.56745036e-001</PTCA2>
#       <PTCB0>2.51668750e+001</PTCB0>
#       <PTCB1>3.75000000e-004</PTCB1>
#       <PTCB2>0.00000000e+000</PTCB2>
#       <Offset>0.000000</Offset>
#     </PressureSensor>
#   </sensor>
#   <sensor Channel="4" >
#     <!-- A/D voltage 0, Oxygen, SBE 43 -->
#     <OxygenSensor SensorID="38" >
#       <SerialNumber>0434</SerialNumber>
#       <CalibrationDate>13-Apr-19</CalibrationDate>
#       <Use2007Equation>1</Use2007Equation>
#       <CalibrationCoefficients equation="0" >
#         <!-- Coefficients for Owens-Millard equation. -->
#         <Boc>0.0000</Boc>
#         <Soc>0.0000e+000</Soc>
#         <offset>0.0000</offset>
#         <Pcor>0.00e+000</Pcor>
#         <Tcor>0.0000</Tcor>
#         <Tau>0.0</Tau>
#       </CalibrationCoefficients>
#       <CalibrationCoefficients equation="1" >
#         <!-- Coefficients for Sea-Bird equation - SBE calibration in 2007 and later. -->
#         <Soc>4.2007e-001</Soc>
#         <offset>-0.6109</offset>
#         <A>-4.3656e-003</A>
#         <B> 1.7017e-004</B>
#         <C>-2.5341e-006</C>
#         <D0> 2.5826e+000</D0>
#         <D1> 1.92634e-004</D1>
#         <D2>-4.64803e-002</D2>
#         <E> 3.6000e-002</E>
#         <Tau20> 1.1800</Tau20>
#         <H1>-3.3000e-002</H1>
#         <H2> 5.0000e+003</H2>
#         <H3> 1.4500e+003</H3>
#       </CalibrationCoefficients>
#     </OxygenSensor>
#   </sensor>
#   <sensor Channel="5" >
#     <!-- A/D voltage 1, PAR/Logarithmic, Satlantic -->
#     <PARLog_SatlanticSensor SensorID="76" >
#       <SerialNumber>1122</SerialNumber>
#       <CalibrationDate>08-May-2019</CalibrationDate>
#       <a0>9.7456e-001</a0>
#       <a1>8.1640e-001</a1>
#       <Im>1.3589e+000</Im>
#       <Multiplier>1.0000e+000</Multiplier>
#     </PARLog_SatlanticSensor>
#   </sensor>
#   <sensor Channel="6" >
#     <!-- A/D voltage 2, pH -->
#     <pH_Sensor SensorID="43" >
#       <SerialNumber>0363</SerialNumber>
#       <CalibrationDate>15-Apr-19</CalibrationDate>
#       <Slope>4.5952</Slope>
#       <Offset>2.5370</Offset>
#     </pH_Sensor>
#   </sensor>
#   <sensor Channel="7" >
#     <!-- A/D voltage 3, Oxidation Reduction Potential -->
#     <OxidationReductionPotentialSensor SensorID="41" >
#       <SerialNumber>0363</SerialNumber>
#       <CalibrationDate>15-Apr-19</CalibrationDate>
#       <B>2.499480</B>
#       <M>-0.496195</M>
#       <Offset>0.0</Offset>
#     </OxidationReductionPotentialSensor>
#   </sensor>
#   <sensor Channel="8" >
#     <!-- A/D voltage 4, Fluorometer, WET Labs ECO-AFL/FL -->
#     <FluoroWetlabECO_AFL_FL_Sensor SensorID="20" >
#       <SerialNumber>FLNTURT-2496</SerialNumber>
#       <CalibrationDate>08-May-2019</CalibrationDate>
#       <ScaleFactor>5.00000000e+001</ScaleFactor>
#       <!-- Dark output -->
#       <Vblank>0.0550</Vblank>
#     </FluoroWetlabECO_AFL_FL_Sensor>
#   </sensor>
#   <sensor Channel="9" >
#     <!-- A/D voltage 5, Turbidity Meter, WET Labs, ECO-NTU -->
#     <TurbidityMeter SensorID="67" >
#       <SerialNumber>FLNTURT-2496</SerialNumber>
#       <CalibrationDate>08-May-2019</CalibrationDate>
#       <ScaleFactor>189.000000</ScaleFactor>
#       <!-- Dark output -->
#       <DarkVoltage>0.071000</DarkVoltage>
#     </TurbidityMeter>
#   </sensor>
# </Sensors>
# datcnv_date = Aug 12 2019 16:27:49, 7.26.7.129 [datcnv_vars = 15]
# datcnv_in = C:\DATA\081219_fcr_0001.hex C:\DATA\SBE19plusV2_7809.xmlcon
# datcnv_skipover = 0
# datcnv_ox_hysteresis_correction = yes
# datcnv_ox_tau_correction = yes
# filter_date = Aug 12 2019 16:28:10, 7.26.7.129
# filter_in = C:\DATA\081219_fcr_0001.cnv
# filter_low_pass_tc_A = 0.030
# filter_low_pass_tc_B = 0.150
# filter_low_pass_A_vars = prdM prdE tv290C density00
# filter_low_pass_B_vars = depFM dz/dtM sbeox0Mg/L sbeox0PS specc c0uS/cm flECO-AFL ph orp par/sat/log turbWETntu0
# alignctd_date = Aug 12 2019 16:28:27, 7.26.7.129
# alignctd_in = C:\DATA\081219_fcr_0001.cnv
# alignctd_adv = dz/dtM 1.000, sbeox0Mg/L 1.000, sbeox0PS 1.000, specc 1.000, c0uS/cm 1.000, flECO-AFL 1.000, ph 1.000, orp 1.000, turbWETntu0 1.000                                                                                 
# file_type = ascii
*END*
     -0.573 5.2129e-18     7.5685     95.173      0.508   0.530202    -0.1064      6.788   412.3148 1.0521e+03    -0.4725     -0.562     -0.815    27.1045   996.4931 0.0000e+00
     -0.572 5.7342e-17     7.5682     95.171      0.508   0.530087    -0.0984      6.789   399.5224 1.1176e+03    -0.4751     -0.561     -0.814    27.1060   996.4926 0.0000e+00
     -0.572 6.3076e-16     7.5678     95.168      0.486   0.505990    -0.0870      6.789   384.6500 1.1638e+03    -0.4256     -0.561     -0.814    27.1070   996.4924 0.0000e+00
     -0.572 6.9384e-15     7.5688     95.182      0.472   0.492280    -0.0815      6.794   366.9742 1.1382e+03    -0.3322     -0.561     -0.814    27.1078   996.4922 0.0000e+00
     -0.573 7.6322e-14     7.5693     95.188      0.471   0.491034    -0.0922      6.804   341.6220 8.9030e+02    -0.2963     -0.562     -0.815    27.1086   996.4919 0.0000e+00
     -0.573 8.3954e-13     7.5693     95.187      0.471   0.490920    -0.1032      6.810   326.8585 6.3646e+02    -0.2866     -0.562     -0.815    27.1091   996.4918 0.0000e+00
     -0.573 9.2350e-12     7.5703     95.199      0.471   0.490910    -0.0940      6.809   335.2522 7.2350e+02    -0.2477     -0.562     -0.815    27.1100   996.4916 0.0000e+00
     -0.573 1.0158e-10     7.5708     95.206      0.471   0.490909    -0.0853      6.807   343.6486 8.1393e+02    -0.2852     -0.562     -0.815    27.1110   996.4913 0.0000e+00
     -0.573 1.1174e-09     7.5699     95.195      0.471   0.490910    -0.0932      6.806   342.9420 7.5503e+02    -0.4121     -0.562     -0.815    27.1113   996.4912 0.0000e+00
     -0.573 1.2292e-08     7.5690     95.184      0.471   0.490920    -0.1020      6.806   338.6677 7.2928e+02    -0.5037     -0.562     -0.815    27.1109   996.4913 0.0000e+00
     -0.573 1.3521e-07     7.5686     95.178      0.471   0.491035    -0.1054      6.805   329.8252 7.5536e+02    -0.4748     -0.562     -0.815    27.1110   996.4913 0.0000e+00
     -0.573      0.000     7.5683     95.175      0.472   0.492291    -0.1606      6.803   321.2079 8.6780e+02     0.0682     -0.562     -0.816    27.1107   996.4913 0.0000e+00
     -0.573      0.000     7.5682     95.173      0.485   0.506111    -0.2675      6.824   332.6472 1.0284e+03     1.0149     -0.561     -0.815    27.1106   996.4914 0.0000e+00
     -0.573      0.000     7.5676     95.165      0.509   0.531411    -0.3215      6.908   389.1528 9.1861e+02     1.5008     -0.562     -0.814    27.1105   996.4914 0.0000e+00
     -0.573      0.002     7.5677     95.159      0.522   0.544768    -0.3195      7.071   509.6867 5.3904e+02     1.5180     -0.562     -0.815    27.1107   996.4913 0.0000e+00
     -0.573      0.007     7.5716     95.172      0.519   0.540887    -0.2614      7.295   747.4746 4.6320e+02     1.0255     -0.562     -0.815    27.1098   996.4916 0.0000e+00
     -0.573      0.015     7.5797     95.199      0.831   0.864629    -0.1564      7.567   860.3754 7.3101e+02     0.0697     -0.562     -0.815    27.1107   996.4914 0.0000e+00
     -0.572      0.025     7.5880     95.220      4.900   5.092689    -0.1070      7.898   611.1874 8.6371e+02    -0.4361     -0.562     -0.816    27.1090   996.4919 0.0000e+00
     -0.566      0.038     7.5937     95.231     14.280  14.836214    -0.1155      8.243   350.8455 8.8064e+02    -0.3715     -0.559     -0.810    27.1115   996.4911 0.0000e+00
     -0.552      0.056     7.5980     95.245     24.722  25.677854    -0.2756      8.518   280.0165 1.0335e+03     0.7199     -0.542     -0.786    27.0981   996.4950 0.0000e+00
     -0.536      0.078     7.6009     95.252     32.391  33.632972    -0.5862      8.716   261.0542 1.0594e+03     2.7323     -0.526     -0.762    27.0404   996.5107 0.0000e+00
     -0.517      0.103     7.6025     95.248     35.501  36.852311    -0.7585      8.879   252.3533 8.0726e+02     3.8711     -0.510     -0.739    26.9859   996.5263 0.0000e+00
     -0.491      0.127     7.6044     95.244     35.838  37.190336    -0.7636      9.015   248.4643 7.2511e+02     4.0671     -0.485     -0.703    26.9515   996.5384 0.0000e+00
     -0.453      0.148     7.6079     95.245     35.998  37.339147    -0.7088      9.114   246.5556 1.1168e+03     4.7091     -0.447     -0.649    26.9276   996.5480 0.0000e+00
     -0.408      0.165     7.6161     95.284     36.126  37.445537    -0.2177      9.172   243.9881 1.6714e+03    11.5017     -0.400     -0.581    26.9114   996.5556 0.0000e+00
     -0.359      0.176     7.6320     95.404     36.173  37.461061     0.6753      9.204   241.3397 1.9974e+03    23.9609     -0.353     -0.512    26.8973   996.5602 0.0000e+00
     -0.308      0.179     7.6573     95.642     36.146  37.399843     1.1668      9.221   239.9160 2.1165e+03    30.7201     -0.301     -0.438    26.8853   996.5634 0.0000e+00
     -0.259      0.173     7.6921     96.011     36.114  37.340052     1.2341      9.226   239.8522 2.1749e+03    30.6976     -0.251     -0.365    26.8622   996.5702 0.0000e+00
     -0.214      0.158     7.7296     96.438     36.101  37.309352     1.4277      9.225   240.4821 2.2129e+03    23.8517     -0.209     -0.303    26.8235   996.5809 0.0000e+00
     -0.174      0.137     7.7647     96.864     36.080  37.282524     1.7657      9.225   241.1654 2.2294e+03    11.2627     -0.170     -0.246    26.7730   996.5949 0.0000e+00
     -0.139      0.112     7.7952     97.253     36.065  37.269567     1.9469      9.226   241.4887 2.2332e+03     4.4293     -0.133     -0.193    26.7252   996.6081 0.0000e+00
     -0.112      0.086     7.8192     97.559     36.072  37.279637     1.9626      9.226   241.2074 2.2417e+03     3.8575     -0.106     -0.154    26.6860   996.6189 0.0000e+00
     -0.096      0.063     7.8363     97.775     36.068  37.277338     1.9822      9.226   241.0336 2.2522e+03     3.8240     -0.091     -0.132    26.6593   996.6262 0.0000e+00
     -0.087      0.042     7.8451     97.884     36.034  37.241771     2.0187      9.225   241.7106 2.2525e+03     3.7952     -0.084     -0.121    26.6563   996.6271 0.0000e+00
     -0.084      0.025     7.8443     97.869     36.025  37.230450     2.0313      9.220   242.6821 2.2446e+03     3.7716     -0.082     -0.119    26.6647   996.6248 0.0000e+00
     -0.081      0.014     7.8366     97.759     36.066  37.267399     2.0226      9.217   242.9708 2.2358e+03     3.8012     -0.080     -0.117    26.6696   996.6235 0.0000e+00
     -0.078      0.008     7.8252     97.598     36.113  37.307669     2.0519      9.218   242.1904 2.2281e+03     3.7926     -0.076     -0.111    26.6705   996.6231 0.0000e+00
     -0.077      0.007     7.8114     97.408     36.148  37.336493     2.1079      9.219   240.3009 2.2283e+03     3.6999     -0.074     -0.108    26.6700   996.6233 0.0000e+00
     -0.077      0.007     7.7896     97.121     36.179  37.361998     2.1368      9.212   226.0623 2.2410e+03     3.6306     -0.077     -0.112    26.6686   996.6237 0.0000e+00
     -0.077      0.008     7.7620     96.765     36.184  37.362140     2.1497      9.200   200.0386 2.2575e+03     3.5782     -0.078     -0.112    26.6606   996.6258 0.0000e+00
     -0.073      0.009     7.7664     96.806     36.167  37.338203     2.1856      9.190   189.8770 2.2627e+03     3.5908     -0.072     -0.104    26.6474   996.6295 0.0000e+00
     -0.070      0.012     7.8388     97.695     36.160  37.326459     2.2408      9.182   192.2497 2.2542e+03     3.7170     -0.068     -0.098    26.6363   996.6326 0.0000e+00
     -0.068      0.015     7.9573     99.165     36.182  37.347085     2.2717      9.173   187.2552 2.2412e+03     3.8250     -0.068     -0.098    26.6287   996.6346 0.0000e+00
     -0.065      0.016     8.0687    100.550     36.232  37.397172     2.2729      9.166   186.6202 2.2304e+03     3.8820     -0.065     -0.094    26.6222   996.6364 0.0000e+00
     -0.058      0.014     8.1405    101.444     36.259  37.424258     2.2636      9.163   204.3598 2.2262e+03     3.8819     -0.057     -0.083    26.6138   996.6387 0.0000e+00
     -0.052      0.009     8.1640    101.734     36.257  37.420681     2.2289      9.159   228.8043 2.2272e+03     3.7906     -0.050     -0.072    26.6057   996.6409 0.0000e+00
     -0.048      0.004     8.1436    101.479     36.254  37.417391     2.1832      9.151   240.4058 2.2258e+03     3.6626     -0.046     -0.066    26.6017   996.6421 0.0000e+00
     -0.049      0.000     8.0886    100.794     36.221  37.384483     2.1612      9.141   241.8159 2.2208e+03     3.5797     -0.046     -0.068    26.6008   996.6423 0.0000e+00
     -0.053     -0.002     8.0007     99.703     36.177  37.340164     2.1540      9.129   242.5850 2.2185e+03     3.5748     -0.052     -0.076    26.6007   996.6423 0.0000e+00
     -0.058     -0.003     7.8875     98.296     36.162  37.325857     2.1390      9.115   243.3375 2.2200e+03     3.6364     -0.058     -0.084    26.5992   996.6427 0.0000e+00
     -0.060     -0.002     7.7710     96.847     36.173  37.338450     2.1103      9.101   243.7740 2.2216e+03     3.7346     -0.060     -0.087    26.5973   996.6432 0.0000e+00
     -0.058      0.000     7.6679     95.564     36.198  37.365481     2.0845      9.091   243.0441 2.2229e+03     3.7791     -0.058     -0.082    26.5983   996.6430 0.0000e+00
     -0.054      0.001     7.5844     94.529     36.228  37.398790     2.0786      9.084   229.6938 2.2243e+03     3.7815     -0.052     -0.075    26.6011   996.6422 0.0000e+00
     -0.052      0.001     7.5183     93.716     36.248  37.423810     2.1000      9.078   203.6727 2.2259e+03     3.7961     -0.050     -0.073    26.6034   996.6415 0.0000e+00
     -0.053     -0.002     7.4583     92.981     36.233  37.414115     2.1346      9.074   188.0916 2.2279e+03     3.7911     -0.052     -0.074    26.6045   996.6412 0.0000e+00
     -0.054     -0.005     7.3952     92.204     36.223  37.408526     2.1581      9.074   185.3339 2.2288e+03     3.7861     -0.052     -0.076    26.6055   996.6410 0.0000e+00
     -0.056     -0.006     7.3272     91.365     36.230  37.419715     2.1671      9.072   184.3534 2.2276e+03     3.8016     -0.053     -0.078    26.6082   996.6403 0.0000e+00
     -0.060     -0.005     7.2635     90.578     36.230  37.422448     2.1746      9.068   183.8077 2.2266e+03     3.7824     -0.059     -0.085    26.6154   996.6383 0.0000e+00
     -0.065     -0.004     7.2213     90.060     36.245  37.441581     2.1880      9.062   183.3819 2.2266e+03     3.7503     -0.066     -0.095    26.6245   996.6357 0.0000e+00
     -0.065     -0.003     7.2163     90.003     36.261  37.460631     2.1910      9.056   182.9914 2.2266e+03     3.7738     -0.065     -0.094    26.6303   996.6342 0.0000e+00
     -0.062     -0.001     7.2559     90.504     36.260  37.462363     2.1925      9.050   182.7002 2.2262e+03     3.8043     -0.059     -0.087    26.6347   996.6330 0.0000e+00
     -0.060      0.001     7.3377     91.531     36.257  37.462519     2.1896      9.042   182.4416 2.2258e+03     3.7586     -0.057     -0.083    26.6397   996.6317 0.0000e+00
     -0.060      0.001     7.4517     92.960     36.254  37.462533     2.1646      9.033   182.1878 2.2271e+03     3.6471     -0.058     -0.084    26.6443   996.6305 0.0000e+00
