* Sea-Bird SBE19plus  Data File:
* FileName = C:\DATA\081219_fcr50_0001.hex
* Software version 2.8.0.119 SB_Terminal.dll
* Temperature SN = 7809
* Conductivity SN = 7809
* System UpLoad Time = Aug 12 2019 09:50:32
* <ApplicationData>
* <Seaterm232>
* <SoftwareVersion>2.8.0.119</SoftwareVersion>
* <BuildDate>07-Nov-2018</BuildDate>
* </Seaterm232>
* </ApplicationData>
* cast   1 12 Aug 2019 09:37:12 samples 1 to 1190, avg = 1, stop = mag switch
# nquan = 16
# nvalues = 889                         
# units = specified
# name 0 = depFM: Depth [fresh water, m]
# name 1 = dz/dtM: Descent Rate [m/s]
# name 2 = sbeox0Mg/L: Oxygen, SBE 43 [mg/l]
# name 3 = sbeox0PS: Oxygen, SBE 43 [% saturation]
# name 4 = specc: Specific Conductance [uS/cm]
# name 5 = c0uS/cm: Conductivity [uS/cm]
# name 6 = flECO-AFL: Fluorescence, WET Labs ECO-AFL/FL [mg/m^3]
# name 7 = ph: pH
# name 8 = orp: Oxidation Reduction Potential [mV]
# name 9 = par/sat/log: PAR/Logarithmic, Satlantic
# name 10 = turbWETntu0: Turbidity, WET Labs ECO [NTU]
# name 11 = prdM: Pressure, Strain Gauge [db]
# name 12 = prdE: Pressure, Strain Gauge [psi]
# name 13 = tv290C: Temperature [ITS-90, deg C]
# name 14 = density00: Density [density, kg/m^3]
# name 15 = flag:  0.000e+00
# span 0 =     -0.580,      9.662       
# span 1 =     -0.160,      0.156       
# span 2 =     0.0781,     9.4577       
# span 3 =      0.786,    115.414       
# span 4 =      3.752,     78.043       
# span 5 =   3.630594,  57.255169       
# span 6 =    -0.5471,     6.8645       
# span 7 =     -2.177,      9.163       
# span 8 =   -92.2913,  1186.7571       
# span 9 = 1.2356e-01, 1.3757e+03       
# span 10 =    -1.2401,    58.2761      
# span 11 =     -0.569,      9.478      
# span 12 =     -0.826,     13.747      
# span 13 =    11.6598,    25.4751      
# span 14 =   996.9410,   999.6173      
# span 15 = 0.0000e+00, 0.0000e+00      
# interval = seconds: 0.25
# start_time = Aug 12 2019 09:37:12 [Instrument's time stamp, header]
# bad_flag = -9.990e-29
# <Sensors count="9" >
#   <sensor Channel="1" >
#     <!-- Count, Temperature -->
#     <TemperatureSensor SensorID="58" >
#       <SerialNumber>7809</SerialNumber>
#       <CalibrationDate>24-Mar-19</CalibrationDate>
#       <A0>1.21792325e-003</A0>
#       <A1>2.81669265e-004</A1>
#       <A2>-1.60333336e-006</A2>
#       <A3>1.98414625e-007</A3>
#       <Slope>1.00000000</Slope>
#       <Offset>0.0000</Offset>
#     </TemperatureSensor>
#   </sensor>
#   <sensor Channel="2" >
#     <!-- Frequency 0, Conductivity -->
#     <ConductivitySensor SensorID="3" >
#       <SerialNumber>7809</SerialNumber>
#       <CalibrationDate>24-Mar-19</CalibrationDate>
#       <UseG_J>1</UseG_J>
#       <!-- Cell const and series R are applicable only for wide range sensors. -->
#       <SeriesR>0.0000</SeriesR>
#       <CellConst>2000.0000</CellConst>
#       <ConductivityType>0</ConductivityType>
#       <Coefficients equation="0" >
#         <A>0.00000000e+000</A>
#         <B>0.00000000e+000</B>
#         <C>0.00000000e+000</C>
#         <D>0.00000000e+000</D>
#         <M>0.0</M>
#         <CPcor>-9.57000000e-008</CPcor>
#       </Coefficients>
#       <Coefficients equation="1" >
#         <G>-1.00589325e+000</G>
#         <H>1.26816302e-001</H>
#         <I>-1.51560448e-004</I>
#         <J>2.67137274e-005</J>
#         <CPcor>-9.57000000e-008</CPcor>
#         <CTcor>3.2500e-006</CTcor>
#         <!-- WBOTC not applicable unless ConductivityType = 1. -->
#         <WBOTC>0.00000000e+000</WBOTC>
#       </Coefficients>
#       <Slope>1.00000000</Slope>
#       <Offset>0.00000</Offset>
#     </ConductivitySensor>
#   </sensor>
#   <sensor Channel="3" >
#     <!-- Count, Pressure, Strain Gauge -->
#     <PressureSensor SensorID="46" >
#       <SerialNumber>7809</SerialNumber>
#       <CalibrationDate>11-Mar-19</CalibrationDate>
#       <PA0>4.56561833e-002</PA0>
#       <PA1>4.85095118e-004</PA1>
#       <PA2>-2.88327090e-012</PA2>
#       <PTEMPA0>-5.48784562e+001</PTEMPA0>
#       <PTEMPA1>5.53756816e+001</PTEMPA1>
#       <PTEMPA2>-5.86727098e-001</PTEMPA2>
#       <PTCA0>5.25246745e+005</PTCA0>
#       <PTCA1>1.22304214e+001</PTCA1>
#       <PTCA2>-3.56745036e-001</PTCA2>
#       <PTCB0>2.51668750e+001</PTCB0>
#       <PTCB1>3.75000000e-004</PTCB1>
#       <PTCB2>0.00000000e+000</PTCB2>
#       <Offset>0.000000</Offset>
#     </PressureSensor>
#   </sensor>
#   <sensor Channel="4" >
#     <!-- A/D voltage 0, Oxygen, SBE 43 -->
#     <OxygenSensor SensorID="38" >
#       <SerialNumber>0434</SerialNumber>
#       <CalibrationDate>13-Apr-19</CalibrationDate>
#       <Use2007Equation>1</Use2007Equation>
#       <CalibrationCoefficients equation="0" >
#         <!-- Coefficients for Owens-Millard equation. -->
#         <Boc>0.0000</Boc>
#         <Soc>0.0000e+000</Soc>
#         <offset>0.0000</offset>
#         <Pcor>0.00e+000</Pcor>
#         <Tcor>0.0000</Tcor>
#         <Tau>0.0</Tau>
#       </CalibrationCoefficients>
#       <CalibrationCoefficients equation="1" >
#         <!-- Coefficients for Sea-Bird equation - SBE calibration in 2007 and later. -->
#         <Soc>4.2007e-001</Soc>
#         <offset>-0.6109</offset>
#         <A>-4.3656e-003</A>
#         <B> 1.7017e-004</B>
#         <C>-2.5341e-006</C>
#         <D0> 2.5826e+000</D0>
#         <D1> 1.92634e-004</D1>
#         <D2>-4.64803e-002</D2>
#         <E> 3.6000e-002</E>
#         <Tau20> 1.1800</Tau20>
#         <H1>-3.3000e-002</H1>
#         <H2> 5.0000e+003</H2>
#         <H3> 1.4500e+003</H3>
#       </CalibrationCoefficients>
#     </OxygenSensor>
#   </sensor>
#   <sensor Channel="5" >
#     <!-- A/D voltage 1, PAR/Logarithmic, Satlantic -->
#     <PARLog_SatlanticSensor SensorID="76" >
#       <SerialNumber>1122</SerialNumber>
#       <CalibrationDate>08-May-2019</CalibrationDate>
#       <a0>9.7456e-001</a0>
#       <a1>8.1640e-001</a1>
#       <Im>1.3589e+000</Im>
#       <Multiplier>1.0000e+000</Multiplier>
#     </PARLog_SatlanticSensor>
#   </sensor>
#   <sensor Channel="6" >
#     <!-- A/D voltage 2, pH -->
#     <pH_Sensor SensorID="43" >
#       <SerialNumber>0363</SerialNumber>
#       <CalibrationDate>15-Apr-19</CalibrationDate>
#       <Slope>4.5952</Slope>
#       <Offset>2.5370</Offset>
#     </pH_Sensor>
#   </sensor>
#   <sensor Channel="7" >
#     <!-- A/D voltage 3, Oxidation Reduction Potential -->
#     <OxidationReductionPotentialSensor SensorID="41" >
#       <SerialNumber>0363</SerialNumber>
#       <CalibrationDate>15-Apr-19</CalibrationDate>
#       <B>2.499480</B>
#       <M>-0.496195</M>
#       <Offset>0.0</Offset>
#     </OxidationReductionPotentialSensor>
#   </sensor>
#   <sensor Channel="8" >
#     <!-- A/D voltage 4, Fluorometer, WET Labs ECO-AFL/FL -->
#     <FluoroWetlabECO_AFL_FL_Sensor SensorID="20" >
#       <SerialNumber>FLNTURT-2496</SerialNumber>
#       <CalibrationDate>08-May-2019</CalibrationDate>
#       <ScaleFactor>5.00000000e+001</ScaleFactor>
#       <!-- Dark output -->
#       <Vblank>0.0550</Vblank>
#     </FluoroWetlabECO_AFL_FL_Sensor>
#   </sensor>
#   <sensor Channel="9" >
#     <!-- A/D voltage 5, Turbidity Meter, WET Labs, ECO-NTU -->
#     <TurbidityMeter SensorID="67" >
#       <SerialNumber>FLNTURT-2496</SerialNumber>
#       <CalibrationDate>08-May-2019</CalibrationDate>
#       <ScaleFactor>189.000000</ScaleFactor>
#       <!-- Dark output -->
#       <DarkVoltage>0.071000</DarkVoltage>
#     </TurbidityMeter>
#   </sensor>
# </Sensors>
# datcnv_date = Aug 12 2019 09:51:05, 7.26.7.129 [datcnv_vars = 15]
# datcnv_in = C:\DATA\081219_fcr50_0001.hex C:\DATA\SBE19plusV2_7809.xmlcon
# datcnv_skipover = 0
# datcnv_ox_hysteresis_correction = yes
# datcnv_ox_tau_correction = yes
# filter_date = Aug 12 2019 09:51:41, 7.26.7.129
# filter_in = C:\DATA\081219_fcr50_0001.cnv
# filter_low_pass_tc_A = 0.030
# filter_low_pass_tc_B = 0.150
# filter_low_pass_A_vars = prdM prdE tv290C density00
# filter_low_pass_B_vars = depFM dz/dtM sbeox0Mg/L sbeox0PS specc c0uS/cm flECO-AFL ph orp par/sat/log turbWETntu0
# alignctd_date = Aug 12 2019 09:52:08, 7.26.7.129
# alignctd_in = C:\DATA\081219_fcr50_0001.cnv
# alignctd_adv = dz/dtM 1.000, sbeox0Mg/L 1.000, sbeox0PS 1.000, specc 1.000, c0uS/cm 1.000, flECO-AFL 1.000, ph 1.000, orp 1.000, turbWETntu0 1.000                                                                                 
# file_type = ascii
*END*
     -0.579 -1.400e-10     7.9639     93.504      3.994   3.864558    -0.1161     -2.177    11.6346 4.9911e+02    -0.0251     -0.568     -0.824    23.3716   997.4576 0.0000e+00
     -0.580 -1.540e-09     7.9637     93.501      3.982   3.852923    -0.1141     -1.345    57.1669 1.0067e+03    -0.0256     -0.569     -0.825    23.3718   997.4575 0.0000e+00
     -0.580 -1.694e-08     7.9577     93.432      3.993   3.863606    -0.1211      0.156   103.8628 1.1919e+03    -0.0167     -0.569     -0.825    23.3720   997.4574 0.0000e+00
     -0.580 -1.863e-07     7.9450     93.284      3.997   3.866985    -0.1227      1.550   140.2689 1.1106e+03     0.1482     -0.569     -0.826    23.3721   997.4574 0.0000e+00
     -0.580 -1.863e-07     7.9255     93.055      4.025   3.893779    -0.1169      2.487   155.3449 8.8396e+02     0.4601     -0.569     -0.825    23.3726   997.4573 0.0000e+00
     -0.580 -1.693e-08     7.8985     92.738      4.066   3.934095    -0.1110      3.169   163.0224 4.4750e+02     0.6414     -0.569     -0.825    23.3728   997.4572 0.0000e+00
     -0.580 -1.539e-09     7.8663     92.361      4.107   3.974223    -0.1121      3.761   132.6039 2.1084e+02     0.6369     -0.569     -0.825    23.3729   997.4572 0.0000e+00
     -0.580 -1.400e-10     7.8332     91.972      4.132   3.998753    -0.1222      4.471    60.6449 4.7522e+02     0.4047     -0.569     -0.825    23.3731   997.4571 0.0000e+00
     -0.580 -1.272e-11     7.8021     91.607      4.110   3.977202    -0.1286      5.290     5.8943 1.0089e+03    -0.0030     -0.568     -0.824    23.3733   997.4571 0.0000e+00
     -0.580 -1.157e-12     7.7737     91.274      4.100   3.967137    -0.1289      5.938   -18.3937 1.3139e+03    -0.2290     -0.569     -0.825    23.3735   997.4571 0.0000e+00
     -0.580 -1.052e-13     7.7497     90.994      4.138   4.003790    -0.1263      6.319   -32.8921 1.3480e+03    -0.2626     -0.569     -0.825    23.3738   997.4570 0.0000e+00
     -0.579 -9.560e-15     7.7307     90.770      4.176   4.040158    -0.1235      6.532   -44.0460 1.3253e+03    -0.3113     -0.568     -0.824    23.3740   997.4570 0.0000e+00
     -0.579 -8.690e-16     7.7161     90.598      4.161   4.026636    -0.1209      6.650   -54.6529 1.2693e+03    -0.4240     -0.568     -0.824    23.3741   997.4570 0.0000e+00
     -0.579 -7.900e-17     7.7050     90.468      4.099   3.967037    -0.1128      6.714   -64.9471 9.8808e+02    -0.5111     -0.568     -0.824    23.3743   997.4569 0.0000e+00
     -0.579 -7.180e-18     7.6956     90.359      4.085   3.953247    -0.1112      6.739   -73.5246 4.8883e+02    -0.5451     -0.569     -0.825    23.3746   997.4568 0.0000e+00
     -0.579 -6.530e-19     7.6885     90.276      4.120   3.986649    -0.1187      6.695   -81.6160 2.0304e+02    -0.5410     -0.568     -0.824    23.3747   997.4568 0.0000e+00
     -0.579 -5.933e-20     7.6838     90.222      4.124   3.990678    -0.1166      6.262   -51.4452 1.5444e+02    -0.4938     -0.569     -0.825    23.3750   997.4567 0.0000e+00
     -0.579 -5.221e-21     7.6797     90.175      4.135   4.001958    -0.1121      5.365     3.2087 1.2979e+02    -0.4984     -0.568     -0.824    23.3754   997.4566 0.0000e+00
     -0.579 1.4262e-21     7.6756     90.129      4.129   3.996299    -0.1171      4.818    -0.9631 1.1704e+02    -0.5634     -0.569     -0.825    23.3755   997.4566 0.0000e+00
     -0.579 2.1039e-20     7.6734     90.103      4.053   3.922248    -0.1330      5.088   -34.6030 1.1077e+02    -0.7226     -0.568     -0.824    23.3759   997.4565 0.0000e+00
     -0.579 2.3191e-19     7.6724     90.092      3.996   3.867049    -0.1571      5.659   -45.8632 1.0114e+02    -0.9817     -0.568     -0.824    23.3764   997.4564 0.0000e+00
     -0.579 2.5511e-18     7.6717     90.085      3.964   3.835854    -0.1744      6.049   -51.2420 9.1550e+01    -1.1736     -0.568     -0.824    23.3773   997.4562 0.0000e+00
     -0.580 2.8062e-17     7.6722     90.090      3.925   3.798548    -0.1774      6.242   -56.0155 8.5642e+01    -1.2401     -0.569     -0.825    23.3782   997.4559 0.0000e+00
     -0.580 3.0868e-16     7.6722     90.090      3.923   3.796193    -0.1756      6.407   -54.2788 8.2266e+01    -1.1961     -0.569     -0.825    23.3785   997.4558 0.0000e+00
     -0.579 3.3955e-15     7.6715     90.082      3.935   3.807385    -0.1960      6.559   -51.4953 8.2056e+01    -0.9696     -0.568     -0.824    23.3789   997.4558 0.0000e+00
     -0.579 3.7351e-14     7.6706     90.072      3.935   3.807139    -0.2332      6.650   -49.2046 8.4396e+01    -0.6634     -0.568     -0.824    23.3793   997.4557 0.0000e+00
     -0.579 4.1086e-13     7.6692     90.057      3.920   3.793217    -0.2527      6.704   -43.6190 8.7677e+01    -0.5417     -0.568     -0.824    23.3795   997.4556 0.0000e+00
     -0.579 4.5194e-12     7.6687     90.052      3.892   3.765792    -0.2590      6.736   -42.9835 8.9452e+01    -0.5477     -0.568     -0.824    23.3795   997.4556 0.0000e+00
     -0.580 4.9714e-11     7.6697     90.065      3.853   3.729017    -0.3088      6.754   -48.6607 9.0657e+01    -0.7022     -0.569     -0.825    23.3796   997.4556 0.0000e+00
     -0.580 5.4685e-10     7.6706     90.075      3.788   3.665426    -0.4124      6.764   -57.3682 9.7062e+01    -1.0337     -0.569     -0.825    23.3799   997.4555 0.0000e+00
     -0.579 6.0153e-09     7.6716     90.087      3.752   3.630594    -0.4805      6.768   -69.7979 1.3228e+02    -1.1802     -0.568     -0.824    23.3801   997.4554 0.0000e+00
     -0.579 6.6169e-08     7.6731     90.105      3.877   3.751446    -0.4729      6.770   -81.5036 4.1904e+02    -1.1298     -0.568     -0.823    23.3804   997.4554 0.0000e+00
     -0.579 7.2786e-07     7.6743     90.120      4.053   3.922624    -0.3293      6.770   -89.8893 9.2514e+02    -0.9814     -0.568     -0.824    23.3805   997.4553 0.0000e+00
     -0.579      0.000     7.6751     90.130      4.057   3.925958    -0.0878      6.757   -92.2913 1.1885e+03    -0.6968     -0.568     -0.824    23.3810   997.4552 0.0000e+00
     -0.579      0.000     7.6728     90.104      3.983   3.855130     0.0366      6.742   -67.5264 1.1992e+03    -0.5072     -0.567     -0.823    23.3807   997.4553 0.0000e+00
     -0.579      0.001     7.6721     90.102      3.953   3.826680     0.0394      6.811   258.9277 1.2066e+03    -0.4265     -0.568     -0.824    23.3817   997.4551 0.0000e+00
     -0.579      0.006     7.6727     90.160      4.676   4.532513    -0.0973      7.040   868.5863 1.2440e+03     0.0496     -0.568     -0.824    23.3809   997.4553 0.0000e+00
     -0.579      0.017     7.6525     90.168      8.488   8.270012    -0.3679      7.334  1186.7571 1.2870e+03     0.8901     -0.568     -0.824    23.3834   997.4547 0.0000e+00
     -0.579      0.034     7.6044     90.139     16.432  16.119632    -0.5277      7.608  1018.8150 1.2963e+03     1.3461     -0.568     -0.823    23.3807   997.4553 0.0000e+00
     -0.575      0.054     7.5532     90.174     26.361  26.024751    -0.5471      7.913   650.2576 1.2064e+03     1.3690     -0.568     -0.825    23.3870   997.4538 0.0000e+00
     -0.559      0.073     7.5108     90.173     35.521  35.243242    -0.5330      8.190   428.0978 1.1340e+03     1.2984     -0.557     -0.808    23.3790   997.4557 0.0000e+00
     -0.528      0.089     7.4757     90.081     41.026  40.841599    -0.4004      8.370   379.2301 1.2308e+03     0.8199     -0.518     -0.751    23.4739   997.4337 0.0000e+00
     -0.495      0.104     7.4528     90.013     42.016  41.922964    -0.1577      8.533   356.1511 1.3168e+03     0.0076     -0.483     -0.700    23.8606   997.3422 0.0000e+00
     -0.465      0.119     7.4389     89.982     40.916  40.891566    -0.0175      8.725   344.4478 1.3093e+03    -0.2968     -0.455     -0.660    24.3066   997.2351 0.0000e+00
     -0.440      0.131     7.4291     89.986     39.446  39.481411     0.0469      8.898   334.2620 1.2980e+03     1.0389     -0.429     -0.622    24.5994   997.1649 0.0000e+00
     -0.414      0.140     7.4211     90.026     38.233  38.331398     0.5084      9.013   324.4556 1.2940e+03    15.9606     -0.413     -0.598    24.7841   997.1201 0.0000e+00
     -0.377      0.149     7.4143     90.076     37.685  37.842096     1.3310      9.086   317.7699 1.2937e+03    43.2965     -0.374     -0.542    24.8995   997.0907 0.0000e+00
     -0.329      0.155     7.4167     90.207     37.615  37.818406     1.7817      9.132   310.8135 1.2802e+03    58.1370     -0.322     -0.466    24.9685   997.0728 0.0000e+00
     -0.280      0.156     7.4307     90.445     37.935  38.171983     1.8486      9.154   303.3274 1.2006e+03    58.2761     -0.275     -0.400    25.0332   997.0560 0.0000e+00
     -0.235      0.150     7.4508     90.735     38.429  38.689444     2.0358      9.159   299.0994 9.4801e+02    44.4870     -0.227     -0.330    25.1255   997.0320 0.0000e+00
     -0.197      0.139     7.4749     91.055     38.658  38.933320     2.3545      9.160   297.0332 8.1254e+02    18.9305     -0.189     -0.274    25.2115   997.0099 0.0000e+00
     -0.167      0.125     7.5014     91.388     38.682  38.962434     2.5290      9.162   295.7254 1.0747e+03     4.9308     -0.163     -0.236    25.2726   996.9942 0.0000e+00
     -0.141      0.112     7.5276     91.703     38.636  38.914507     2.5587      9.163   294.4721 1.3154e+03     3.6524     -0.138     -0.199    25.3108   996.9845 0.0000e+00
     -0.117      0.102     7.5528     91.999     38.274  38.544266     2.5927      9.161   292.5487 1.3434e+03     3.5721     -0.116     -0.168    25.3353   996.9786 0.0000e+00
     -0.092      0.094     7.5762     92.271     37.654  37.913684     2.6364      9.151   290.7957 1.3389e+03     3.5668     -0.092     -0.134    25.3535   996.9740 0.0000e+00
     -0.067      0.085     7.5944     92.481     37.133  37.383987     2.6621      9.138   289.0217 1.3289e+03     3.5551     -0.063     -0.092    25.3595   996.9724 0.0000e+00
     -0.044      0.072     7.6082     92.641     36.845  37.090848     2.6687      9.129   287.1029 1.3182e+03     3.5282     -0.042     -0.062    25.3536   996.9741 0.0000e+00
     -0.024      0.053     7.6258     92.851     36.729  36.971803     2.6998      9.121   285.6635 1.3059e+03     3.5047     -0.022     -0.032    25.3468   996.9759 0.0000e+00
     -0.008      0.029     7.6509     93.156     36.654  36.896738     2.7615      9.112   284.7829 1.2989e+03     3.4992     -0.004     -0.006    25.3388   996.9778 0.0000e+00
     -0.002      0.007     7.6814     93.532     36.574  36.817967     2.7985      9.099   283.7688 1.3038e+03     3.5272      0.002      0.004    25.3306   996.9798 0.0000e+00
     -0.007     -0.010     7.7210     94.024     36.533  36.781064     2.8004      9.085   282.5226 1.3063e+03     3.5816     -0.003     -0.004    25.3270   996.9807 0.0000e+00
     -0.022     -0.022     7.7650     94.576     36.514  36.767914     2.7924      9.072   281.5884 1.3091e+03     3.6003     -0.023     -0.034    25.3246   996.9811 0.0000e+00
     -0.037     -0.028     7.7974     94.986     36.462  36.722463     2.7715      9.061   280.5612 1.3148e+03     3.6220     -0.039     -0.057    25.3241   996.9812 0.0000e+00
