* Sea-Bird SBE19plus  Data File:
* FileName = C:\DATA\081219_fcr_0002.hex
* Software version 2.8.0.119 SB_Terminal.dll
* Temperature SN = 7809
* Conductivity SN = 7809
* System UpLoad Time = Aug 12 2019 16:25:42
* <ApplicationData>
* <Seaterm232>
* <SoftwareVersion>2.8.0.119</SoftwareVersion>
* <BuildDate>07-Nov-2018</BuildDate>
* </Seaterm232>
* </ApplicationData>
* cast   2 12 Aug 2019 12:13:15 samples 554 to 1343, avg = 1, stop = mag switch
# nquan = 16
# nvalues = 689                         
# units = specified
# name 0 = depFM: Depth [fresh water, m]
# name 1 = dz/dtM: Descent Rate [m/s]
# name 2 = sbeox0Mg/L: Oxygen, SBE 43 [mg/l]
# name 3 = sbeox0PS: Oxygen, SBE 43 [% saturation]
# name 4 = specc: Specific Conductance [uS/cm]
# name 5 = c0uS/cm: Conductivity [uS/cm]
# name 6 = flECO-AFL: Fluorescence, WET Labs ECO-AFL/FL [mg/m^3]
# name 7 = ph: pH
# name 8 = orp: Oxidation Reduction Potential [mV]
# name 9 = par/sat/log: PAR/Logarithmic, Satlantic
# name 10 = turbWETntu0: Turbidity, WET Labs ECO [NTU]
# name 11 = prdM: Pressure, Strain Gauge [db]
# name 12 = prdE: Pressure, Strain Gauge [psi]
# name 13 = tv290C: Temperature [ITS-90, deg C]
# name 14 = density00: Density [density, kg/m^3]
# name 15 = flag:  0.000e+00
# span 0 =     -0.397,      3.028       
# span 1 =     -0.017,      0.208       
# span 2 =     0.0727,    11.4728       
# span 3 =      0.838,    141.207       
# span 4 =     35.906,    102.046       
# span 5 =  35.774647,  90.839532       
# span 6 =     1.5466,    15.2487       
# span 7 =      7.326,      9.086       
# span 8 =    94.7336,   263.3711       
# span 9 = 1.4375e+01, 2.2878e+03       
# span 10 =     3.4714,    50.6834      
# span 11 =     -0.403,      2.970      
# span 12 =     -0.583,      4.307      
# span 13 =    19.4830,    28.1217      
# span 14 =   996.2155,   998.3635      
# span 15 = 0.0000e+00, 0.0000e+00      
# interval = seconds: 0.25
# start_time = Aug 12 2019 12:13:15 [Instrument's time stamp, header]
# bad_flag = -9.990e-29
# <Sensors count="9" >
#   <sensor Channel="1" >
#     <!-- Count, Temperature -->
#     <TemperatureSensor SensorID="58" >
#       <SerialNumber>7809</SerialNumber>
#       <CalibrationDate>24-Mar-19</CalibrationDate>
#       <A0>1.21792325e-003</A0>
#       <A1>2.81669265e-004</A1>
#       <A2>-1.60333336e-006</A2>
#       <A3>1.98414625e-007</A3>
#       <Slope>1.00000000</Slope>
#       <Offset>0.0000</Offset>
#     </TemperatureSensor>
#   </sensor>
#   <sensor Channel="2" >
#     <!-- Frequency 0, Conductivity -->
#     <ConductivitySensor SensorID="3" >
#       <SerialNumber>7809</SerialNumber>
#       <CalibrationDate>24-Mar-19</CalibrationDate>
#       <UseG_J>1</UseG_J>
#       <!-- Cell const and series R are applicable only for wide range sensors. -->
#       <SeriesR>0.0000</SeriesR>
#       <CellConst>2000.0000</CellConst>
#       <ConductivityType>0</ConductivityType>
#       <Coefficients equation="0" >
#         <A>0.00000000e+000</A>
#         <B>0.00000000e+000</B>
#         <C>0.00000000e+000</C>
#         <D>0.00000000e+000</D>
#         <M>0.0</M>
#         <CPcor>-9.57000000e-008</CPcor>
#       </Coefficients>
#       <Coefficients equation="1" >
#         <G>-1.00589325e+000</G>
#         <H>1.26816302e-001</H>
#         <I>-1.51560448e-004</I>
#         <J>2.67137274e-005</J>
#         <CPcor>-9.57000000e-008</CPcor>
#         <CTcor>3.2500e-006</CTcor>
#         <!-- WBOTC not applicable unless ConductivityType = 1. -->
#         <WBOTC>0.00000000e+000</WBOTC>
#       </Coefficients>
#       <Slope>1.00000000</Slope>
#       <Offset>0.00000</Offset>
#     </ConductivitySensor>
#   </sensor>
#   <sensor Channel="3" >
#     <!-- Count, Pressure, Strain Gauge -->
#     <PressureSensor SensorID="46" >
#       <SerialNumber>7809</SerialNumber>
#       <CalibrationDate>11-Mar-19</CalibrationDate>
#       <PA0>4.56561833e-002</PA0>
#       <PA1>4.85095118e-004</PA1>
#       <PA2>-2.88327090e-012</PA2>
#       <PTEMPA0>-5.48784562e+001</PTEMPA0>
#       <PTEMPA1>5.53756816e+001</PTEMPA1>
#       <PTEMPA2>-5.86727098e-001</PTEMPA2>
#       <PTCA0>5.25246745e+005</PTCA0>
#       <PTCA1>1.22304214e+001</PTCA1>
#       <PTCA2>-3.56745036e-001</PTCA2>
#       <PTCB0>2.51668750e+001</PTCB0>
#       <PTCB1>3.75000000e-004</PTCB1>
#       <PTCB2>0.00000000e+000</PTCB2>
#       <Offset>0.000000</Offset>
#     </PressureSensor>
#   </sensor>
#   <sensor Channel="4" >
#     <!-- A/D voltage 0, Oxygen, SBE 43 -->
#     <OxygenSensor SensorID="38" >
#       <SerialNumber>0434</SerialNumber>
#       <CalibrationDate>13-Apr-19</CalibrationDate>
#       <Use2007Equation>1</Use2007Equation>
#       <CalibrationCoefficients equation="0" >
#         <!-- Coefficients for Owens-Millard equation. -->
#         <Boc>0.0000</Boc>
#         <Soc>0.0000e+000</Soc>
#         <offset>0.0000</offset>
#         <Pcor>0.00e+000</Pcor>
#         <Tcor>0.0000</Tcor>
#         <Tau>0.0</Tau>
#       </CalibrationCoefficients>
#       <CalibrationCoefficients equation="1" >
#         <!-- Coefficients for Sea-Bird equation - SBE calibration in 2007 and later. -->
#         <Soc>4.2007e-001</Soc>
#         <offset>-0.6109</offset>
#         <A>-4.3656e-003</A>
#         <B> 1.7017e-004</B>
#         <C>-2.5341e-006</C>
#         <D0> 2.5826e+000</D0>
#         <D1> 1.92634e-004</D1>
#         <D2>-4.64803e-002</D2>
#         <E> 3.6000e-002</E>
#         <Tau20> 1.1800</Tau20>
#         <H1>-3.3000e-002</H1>
#         <H2> 5.0000e+003</H2>
#         <H3> 1.4500e+003</H3>
#       </CalibrationCoefficients>
#     </OxygenSensor>
#   </sensor>
#   <sensor Channel="5" >
#     <!-- A/D voltage 1, PAR/Logarithmic, Satlantic -->
#     <PARLog_SatlanticSensor SensorID="76" >
#       <SerialNumber>1122</SerialNumber>
#       <CalibrationDate>08-May-2019</CalibrationDate>
#       <a0>9.7456e-001</a0>
#       <a1>8.1640e-001</a1>
#       <Im>1.3589e+000</Im>
#       <Multiplier>1.0000e+000</Multiplier>
#     </PARLog_SatlanticSensor>
#   </sensor>
#   <sensor Channel="6" >
#     <!-- A/D voltage 2, pH -->
#     <pH_Sensor SensorID="43" >
#       <SerialNumber>0363</SerialNumber>
#       <CalibrationDate>15-Apr-19</CalibrationDate>
#       <Slope>4.5952</Slope>
#       <Offset>2.5370</Offset>
#     </pH_Sensor>
#   </sensor>
#   <sensor Channel="7" >
#     <!-- A/D voltage 3, Oxidation Reduction Potential -->
#     <OxidationReductionPotentialSensor SensorID="41" >
#       <SerialNumber>0363</SerialNumber>
#       <CalibrationDate>15-Apr-19</CalibrationDate>
#       <B>2.499480</B>
#       <M>-0.496195</M>
#       <Offset>0.0</Offset>
#     </OxidationReductionPotentialSensor>
#   </sensor>
#   <sensor Channel="8" >
#     <!-- A/D voltage 4, Fluorometer, WET Labs ECO-AFL/FL -->
#     <FluoroWetlabECO_AFL_FL_Sensor SensorID="20" >
#       <SerialNumber>FLNTURT-2496</SerialNumber>
#       <CalibrationDate>08-May-2019</CalibrationDate>
#       <ScaleFactor>5.00000000e+001</ScaleFactor>
#       <!-- Dark output -->
#       <Vblank>0.0550</Vblank>
#     </FluoroWetlabECO_AFL_FL_Sensor>
#   </sensor>
#   <sensor Channel="9" >
#     <!-- A/D voltage 5, Turbidity Meter, WET Labs, ECO-NTU -->
#     <TurbidityMeter SensorID="67" >
#       <SerialNumber>FLNTURT-2496</SerialNumber>
#       <CalibrationDate>08-May-2019</CalibrationDate>
#       <ScaleFactor>189.000000</ScaleFactor>
#       <!-- Dark output -->
#       <DarkVoltage>0.071000</DarkVoltage>
#     </TurbidityMeter>
#   </sensor>
# </Sensors>
# datcnv_date = Aug 12 2019 16:27:50, 7.26.7.129 [datcnv_vars = 15]
# datcnv_in = C:\DATA\081219_fcr_0002.hex C:\DATA\SBE19plusV2_7809.xmlcon
# datcnv_skipover = 0
# datcnv_ox_hysteresis_correction = yes
# datcnv_ox_tau_correction = yes
# filter_date = Aug 12 2019 16:28:10, 7.26.7.129
# filter_in = C:\DATA\081219_fcr_0002.cnv
# filter_low_pass_tc_A = 0.030
# filter_low_pass_tc_B = 0.150
# filter_low_pass_A_vars = prdM prdE tv290C density00
# filter_low_pass_B_vars = depFM dz/dtM sbeox0Mg/L sbeox0PS specc c0uS/cm flECO-AFL ph orp par/sat/log turbWETntu0
# alignctd_date = Aug 12 2019 16:28:27, 7.26.7.129
# alignctd_in = C:\DATA\081219_fcr_0002.cnv
# alignctd_adv = dz/dtM 1.000, sbeox0Mg/L 1.000, sbeox0PS 1.000, specc 1.000, c0uS/cm 1.000, flECO-AFL 1.000, ph 1.000, orp 1.000, turbWETntu0 1.000                                                                                 
# file_type = ascii
*END*
     -0.397      0.101     6.8857     86.765     36.297  37.912728     1.5865      9.019   148.2195 1.7783e+03     8.4152     -0.403     -0.583    28.1217   996.2155 0.0000e+00
     -0.358      0.134     6.9027     86.703     36.372  37.863166     1.5466      9.052   141.3371 1.8415e+03     8.6874     -0.352     -0.511    27.8694   996.2892 0.0000e+00
     -0.308      0.167     6.9492     87.056     36.452  37.838061     1.5522      9.070   137.5481 1.9234e+03     8.6070     -0.299     -0.434    27.6043   996.3646 0.0000e+00
     -0.261      0.194     7.0244     87.826     36.553  37.862918     1.7757      9.080   136.9087 2.0035e+03     7.4767     -0.257     -0.373    27.4106   996.4186 0.0000e+00
     -0.210      0.208     7.1223     88.936     36.649  37.909687     2.1939      9.085   137.2200 1.8578e+03     5.3447     -0.209     -0.302    27.2142   996.4735 0.0000e+00
     -0.151      0.201     7.2298     90.226     36.658  37.895647     2.4207      9.086   137.8696 1.2633e+03     4.1306     -0.150     -0.216    27.0338   996.5236 0.0000e+00
     -0.088      0.176     7.3280     91.472     36.577  37.820079     2.4467      9.081   138.7411 6.0875e+02     4.0049     -0.088     -0.128    26.8778   996.5668 0.0000e+00
     -0.026      0.141     7.4030     92.447     36.501  37.757726     2.5165      9.074   139.7553 3.3269e+02     4.0216     -0.019     -0.029    26.7741   996.5954 0.0000e+00
      0.016      0.102     7.4512     93.023     36.467  37.713050     2.6500      9.064   140.8392 2.8757e+02     4.0368      0.034      0.049    26.7016   996.6155 0.0000e+00
      0.021      0.064     7.4603     93.042     36.456  37.660743     2.7338      9.053   141.9530 3.0261e+02     4.0246      0.027      0.039    26.6606   996.6266 0.0000e+00
      0.009      0.031     7.4211     92.442     36.477  37.633017     2.7483      9.040   142.8970 6.9565e+02     3.9732      0.003      0.005    26.6867   996.6193 0.0000e+00
      0.003      0.008     7.3706     91.716     36.518  37.631637     2.6873      9.029   143.5633 1.2680e+03     3.9401      0.000      0.002    26.7355   996.6060 0.0000e+00
      0.005     -0.003     7.3860     91.827     36.564  37.643993     2.5686      9.019   144.0719 1.1250e+03     3.9839      0.002      0.004    26.7194   996.6104 0.0000e+00
      0.010     -0.003     7.5215     93.441     36.604  37.655413     2.5092      9.011   144.6579 5.3721e+02     4.0440      0.011      0.014    26.6460   996.6303 0.0000e+00
      0.015     -0.002     7.7379     96.055     36.622  37.642721     2.5072      9.003   145.4009 2.7776e+02     4.0455      0.018      0.025    26.5732   996.6501 0.0000e+00
      0.014     -0.002     7.9434     98.522     36.631  37.617431     2.4926      8.995   146.1718 2.5904e+02     3.9027      0.015      0.022    26.5158   996.6656 0.0000e+00
      0.008     -0.003     8.0864    100.212     36.651  37.603492     2.4631      8.988   146.9245 2.6599e+02     3.6610      0.009      0.011    26.4680   996.6786 0.0000e+00
      0.002     -0.006     8.1633    101.091     36.677  37.601086     2.4445      8.979   147.7048 2.7212e+02     3.5487     -0.000     -0.000    26.4309   996.6885 0.0000e+00
      0.001     -0.010     8.1870    101.327     36.688  37.588291     2.4406      8.967   148.6363 3.0314e+02     3.5606     -0.001     -0.001    26.3897   996.6998 0.0000e+00
      0.005     -0.012     8.1551    100.885     36.694  37.575702     2.3986      8.955   149.5838 3.3431e+02     3.5753      0.006      0.008    26.3404   996.7130 0.0000e+00
      0.005     -0.012     8.0571     99.635     36.709  37.575797     2.3092      8.943   150.2133 3.0397e+02     3.5626      0.009      0.013    26.2910   996.7263 0.0000e+00
     -0.001     -0.012     7.9131     97.831     36.731  37.589417     2.2539      8.932   150.6545 2.6666e+02     3.5379      0.001      0.001    26.2498   996.7373 0.0000e+00
     -0.011     -0.014     7.7660     95.999     36.760  37.613415     2.2499      8.922   152.0784 2.5807e+02     3.5714     -0.013     -0.019    26.2199   996.7452 0.0000e+00
     -0.017     -0.016     7.6459     94.504     36.764  37.612052     2.2613      8.914   164.7629 2.5391e+02     3.6076     -0.020     -0.029    26.1934   996.7523 0.0000e+00
     -0.017     -0.017     7.5610     93.444     36.730  37.572929     2.2963      8.905   177.8018 2.5580e+02     3.6153     -0.017     -0.024    26.1715   996.7582 0.0000e+00
     -0.016     -0.015     7.5177     92.900     36.683  37.521226     2.3509      8.893   169.4015 2.6631e+02     3.6638     -0.013     -0.018    26.1595   996.7614 0.0000e+00
     -0.021     -0.011     7.5180     92.900     36.658  37.494702     2.3762      8.881   158.1833 2.8104e+02     3.7359     -0.019     -0.028    26.1537   996.7629 0.0000e+00
     -0.029     -0.009     7.5447     93.228     36.670  37.506128     2.3765      8.872   156.6815 3.3134e+02     3.7661     -0.030     -0.043    26.1485   996.7643 0.0000e+00
     -0.034     -0.007     7.5740     93.592     36.695  37.532432     2.3805      8.862   156.4915 4.1080e+02     3.7012     -0.035     -0.051    26.1409   996.7663 0.0000e+00
     -0.033     -0.005     7.5871     93.759     36.719  37.558840     2.3815      8.851   156.5736 4.8095e+02     3.6068     -0.033     -0.049    26.1357   996.7677 0.0000e+00
     -0.030     -0.002     7.5747     93.613     36.729  37.571533     2.3794      8.840   156.7286 5.4363e+02     3.5744     -0.030     -0.042    26.1341   996.7681 0.0000e+00
     -0.029      0.000     7.5422     93.213     36.716  37.558952     2.3816      8.830   156.9889 7.8830e+02     3.5722     -0.028     -0.040    26.1327   996.7685 0.0000e+00
     -0.030      0.001     7.5038     92.735     36.692  37.533678     2.4604      8.820   157.3111 1.3641e+03     3.6128     -0.028     -0.041    26.1330   996.7684 0.0000e+00
     -0.031      0.001     7.4730     92.352     36.679  37.519840     2.6036      8.810   157.6993 1.8623e+03     3.7045     -0.032     -0.046    26.1365   996.7674 0.0000e+00
     -0.031      0.001     7.4551     92.131     36.678  37.518581     2.6740      8.800   158.1555 1.9761e+03     3.7631     -0.032     -0.046    26.1421   996.7660 0.0000e+00
     -0.030      0.001     7.4463     92.026     36.677  37.518456     2.6786      8.791   158.6109 1.7878e+03     3.7643     -0.029     -0.041    26.1435   996.7657 0.0000e+00
     -0.029      0.002     7.4347     91.888     36.674  37.518331     2.6856      8.783   158.9889 1.2824e+03     3.7845     -0.027     -0.039    26.1405   996.7665 0.0000e+00
     -0.030      0.004     7.4087     91.576     36.669  37.517081     2.6980      8.776   159.2842 7.7403e+02     3.8430     -0.029     -0.042    26.1392   996.7668 0.0000e+00
     -0.030      0.005     7.3628     91.019     36.651  37.503345     2.6980      8.770   159.5138 6.3214e+02     3.8498     -0.031     -0.044    26.1389   996.7668 0.0000e+00
     -0.029      0.005     7.2949     90.186     36.624  37.479203     2.6856      8.766   159.7864 6.4829e+02     3.8012     -0.029     -0.041    26.1400   996.7665 0.0000e+00
     -0.025      0.004     7.2189     89.249     36.623  37.479089     2.7041      8.761   160.1714 5.7887e+02     3.8121     -0.024     -0.035    26.1439   996.7655 0.0000e+00
     -0.021      0.001     7.1692     88.637     36.645  37.501971     2.7568      8.754   160.6411 4.6120e+02     3.9171     -0.020     -0.028    26.1498   996.7640 0.0000e+00
     -0.021     -0.001     7.1711     88.665     36.643  37.501970     2.7943      8.747   161.0773 4.1003e+02     4.0213     -0.019     -0.027    26.1570   996.7620 0.0000e+00
     -0.023     -0.003     7.2141     89.205     36.617  37.479077     2.8017      8.742   161.4016 4.2216e+02     4.0566     -0.022     -0.032    26.1618   996.7608 0.0000e+00
     -0.028     -0.003     7.2765     89.985     36.612  37.479075     2.8029      8.735   161.8088 4.1091e+02     4.0166     -0.027     -0.039    26.1622   996.7606 0.0000e+00
     -0.031     -0.003     7.3528     90.936     36.632  37.501957     2.7735      8.726   162.3875 3.7220e+02     3.9627     -0.031     -0.046    26.1624   996.7605 0.0000e+00
     -0.031     -0.002     7.4493     92.135     36.630  37.501843     2.6990      8.717   162.9780 4.1755e+02     3.9619     -0.032     -0.046    26.1652   996.7598 0.0000e+00
     -0.029      0.001     7.5691     93.616     36.606  37.477702     2.6389      8.709   163.3555 6.3242e+02     4.0075     -0.029     -0.041    26.1715   996.7581 0.0000e+00
     -0.026      0.003     7.7012     95.246     36.594  37.463967     2.6180      8.702   163.5967 8.8967e+02     4.0227     -0.025     -0.036    26.1775   996.7566 0.0000e+00
     -0.025      0.004     7.8240     96.765     36.593  37.462718     2.6285      8.696   163.9156 1.0861e+03     3.9162     -0.024     -0.035    26.1819   996.7553 0.0000e+00
     -0.025      0.003     7.9159     97.906     36.591  37.462605     2.6630      8.691   164.2851 1.2929e+03     3.8011     -0.026     -0.037    26.1854   996.7543 0.0000e+00
     -0.024      0.001     7.9648     98.518     36.588  37.462605     2.6880      8.686   164.6232 1.5012e+03     3.7777     -0.025     -0.036    26.1851   996.7545 0.0000e+00
     -0.024      0.000     7.9705     98.596     36.585  37.462717     2.6872      8.681   164.9062 1.6283e+03     3.7649     -0.023     -0.033    26.1820   996.7553 0.0000e+00
     -0.024     -0.001     7.9440     98.272     36.585  37.463965     2.6626      8.676   165.2112 1.7046e+03     3.7116     -0.023     -0.034    26.1807   996.7557 0.0000e+00
     -0.025     -0.002     7.9024     97.757     36.599  37.477699     2.6323      8.672   165.6444 1.7933e+03     3.6241     -0.025     -0.036    26.1839   996.7548 0.0000e+00
     -0.026     -0.002     7.8613     97.248     36.623  37.501831     2.6245      8.667   166.1862 1.8665e+03     3.5591     -0.025     -0.036    26.1891   996.7534 0.0000e+00
     -0.027     -0.002     7.8312     96.874     36.624  37.501839     2.6297      8.661   166.6006 1.9077e+03     3.5484     -0.026     -0.037    26.1930   996.7524 0.0000e+00
     -0.028     -0.001     7.8140     96.661     36.600  37.477799     2.6256      8.656   166.8689 1.9489e+03     3.6256     -0.027     -0.039    26.1953   996.7517 0.0000e+00
     -0.028      0.000     7.8073     96.580     36.587  37.465063     2.6186      8.651   167.1924 1.9784e+03     3.7391     -0.028     -0.040    26.1948   996.7519 0.0000e+00
     -0.027      0.001     7.8112     96.626     36.597  37.474800     2.6226      8.646   167.5871 1.9877e+03     3.7735     -0.027     -0.039    26.1936   996.7523 0.0000e+00
     -0.027      0.003     7.8287     96.838     36.593  37.468578     2.6307      8.641   168.0275 1.9902e+03     3.7796     -0.026     -0.038    26.1926   996.7525 0.0000e+00
     -0.026      0.005     7.8580     97.198     36.579  37.453294     2.6301      8.635   168.4731 1.9915e+03     3.7802     -0.026     -0.037    26.1926   996.7524 0.0000e+00
     -0.025      0.005     7.8868     97.558     36.604  37.480428     2.6245      8.628   168.8449 1.9977e+03     3.7811     -0.026     -0.038    26.1949   996.7518 0.0000e+00
