* Sea-Bird SBE19plus  Data File:
* FileName = C:\DATA\061019_fcr_0004.hex
* Software version 2.8.0.119
* Temperature SN = 7809
* Conductivity SN = 7809
* System UpLoad Time = Jun 10 2019 13:28:56
* <ApplicationData>
* <Seaterm232>
* <SoftwareVersion>2.8.0.119</SoftwareVersion>
* <BuildDate>07-Nov-2018</BuildDate>
* </Seaterm232>
* </ApplicationData>
* <InstrumentState>
* <HardwareData DeviceType='SBE19plus' SerialNumber='01907809'>
*
*    <Manufacturer>Sea-Bird Electronics, Inc.</Manufacturer>
*
*    <FirmwareVersion>3.1.8</FirmwareVersion>
*
*    <FirmwareDate>Mar  9 2016 16:22:29</FirmwareDate>
*
*    <CommandSetVersion>1.4</CommandSetVersion>
*
*    <PCBAssembly PCBSerialNum='120721' AssemblyNum='41054J'/>
*
*    <PCBAssembly PCBSerialNum='120715' AssemblyNum='41967A'/>
*
*    <PCBAssembly PCBSerialNum='116699' AssemblyNum='41606'/>
*
*    <PCBAssembly PCBSerialNum='120719' AssemblyNum='41059D'/>
*
*    <MfgDate>28-Apr-2017</MfgDate>
*
*    <InternalSensors>
*
*       <Sensor id='Main Temperature'>
*
*          <type>temperature0</type>
*
*          <SerialNumber>01907809</SerialNumber>
*
*       </Sensor>
*
*       <Sensor id='Main Conductivity'>
*
*          <type>conductivity-0</type>
*
*          <SerialNumber>01907809</SerialNumber>
*
*       </Sensor>
*
*       <Sensor id='Main Pressure'>
*
*          <type>strain-0</type>
*
*          <SerialNumber>10586018</SerialNumber>
*
*       </Sensor>
*
*    </InternalSensors>
*
*    <ExternalSensors>
*
*       <Sensor id='volt 0'>
*
*          <type>pH</type>
*
*          <SerialNumber>27-0363</SerialNumber>
*
*       </Sensor>
*
*       <Sensor id='volt 1'>
*
*          <type>ORP</type>
*
*          <SerialNumber>27-0363</SerialNumber>
*
*       </Sensor>
*
*       <Sensor id='volt 2'>
*
*          <type>OXY</type>
*
*          <SerialNumber>43-0434</SerialNumber>
*
*       </Sensor>
*
*       <Sensor id='volt 3'>
*
*          <type>PAR</type>
*
*          <SerialNumber>1122</SerialNumber>
*
*       </Sensor>
*
*       <Sensor id='volt 4'>
*
*          <type>ECO AFL/FL</type>
*
*          <SerialNumber>FLNTURT-2496</SerialNumber>
*
*       </Sensor>
*
*       <Sensor id='volt 5'>
*
*          <type>ECO-NTU</type>
*
*          <SerialNumber>FLNTURT-2496</SerialNumber>
*
*       </Sensor>
*
*       <Sensor id='serial'>
*
*          <type>not assigned</type>
*
*          <SerialNumber>not assigned</SerialNumber>
*
*       </Sensor>
*
*    </ExternalSensors>
*
* </HardwareData>
* <StatusData DeviceType='SBE19plus' SerialNumber='01907809'>
*
*    <DateTime>2019-06-10T13:27:22</DateTime>
*
*    <LoggingState>not logging</LoggingState>
*
*    <EventSummary numEvents='0'/>
*
*    <Power>
*
*       <vMain>13.5</vMain>
*
*       <vLith>8.6</vLith>
*
*       <iMain>63.1</iMain>
*
*       <iPump>148.4</iPump>
*
*       <iExt01>19.7</iExt01>
*
*       <iExt2345>35.3</iExt2345>
*
*    </Power>
*
*    <MemorySummary>
*
*       <Bytes>109940</Bytes>
*
*       <Samples>4780</Samples>
*
*       <SamplesFree>2856008</SamplesFree>
*
*       <SampleLength>23</SampleLength>
*
*       <Profiles>6</Profiles>
*
*    </MemorySummary>
*
* </StatusData>
* <ConfigurationData DeviceType='SBE19plus' SerialNumber='01907809'>
*
*    <ProfileMode>
*
*       <ScansToAverage>1</ScansToAverage>
*
*       <MinimumCondFreq>5</MinimumCondFreq>
*
*       <PumpDelay>45</PumpDelay>
*
*       <AutoRun>no</AutoRun>
*
*       <IgnoreSwitch>no</IgnoreSwitch>
*
*    </ProfileMode>
*
*    <Battery>
*
*       <Type>alkaline</Type>
*
*       <CutOff>7.5</CutOff>
*
*    </Battery>
*
*    <DataChannels>
*
*       <ExtVolt0>yes</ExtVolt0>
*
*       <ExtVolt1>yes</ExtVolt1>
*
*       <ExtVolt2>yes</ExtVolt2>
*
*       <ExtVolt3>yes</ExtVolt3>
*
*       <ExtVolt4>yes</ExtVolt4>
*
*       <ExtVolt5>yes</ExtVolt5>
*
*       <SBE38>no</SBE38>
*
*       <WETLABS>no</WETLABS>
*
*       <OPTODE>no</OPTODE>
*
*       <SBE63>no</SBE63>
*
*       <SeaFET>no</SeaFET>
*
*       <GTD>no</GTD>
*
*    </DataChannels>
*
*    <EchoCharacters>yes</EchoCharacters>
*
*    <OutputExecutedTag>yes</OutputExecutedTag>
*
*    <OutputFormat>raw HEX</OutputFormat>
*
* </ConfigurationData>
* <CalibrationCoefficients DeviceType='SBE19plus' SerialNumber='01907809'>
*
*    <Calibration format='TEMP1' id='Main Temperature'>
*
*       <SerialNum>01907809</SerialNum>
*
*       <CalDate>24-Mar-19</CalDate>
*
*       <TA0>1.217923e-03</TA0>
*
*       <TA1>2.816693e-04</TA1>
*
*       <TA2>-1.603333e-06</TA2>
*
*       <TA3>1.984146e-07</TA3>
*
*       <TOFFSET>0.000000e+00</TOFFSET>
*
*    </Calibration>
*
*    <Calibration format='WBCOND0' id='Main Conductivity'>
*
*       <SerialNum>01907809</SerialNum>
*
*       <CalDate>24-Mar-19</CalDate>
*
*       <G>-1.005893e+00</G>
*
*       <H>1.268163e-01</H>
*
*       <I>-1.515604e-04</I>
*
*       <J>2.671373e-05</J>
*
*       <CPCOR>-9.570000e-08</CPCOR>
*
*       <CTCOR>3.250000e-06</CTCOR>
*
*       <CSLOPE>1.000000e+00</CSLOPE>
*
*    </Calibration>
*
*    <Calibration format='STRAIN0' id='Main Pressure'>
*
*       <SerialNum>10586018</SerialNum>
*
*       <CalDate>11-Mar-19</CalDate>
*
*       <PA0>4.565618e-02</PA0>
*
*       <PA1>4.850951e-04</PA1>
*
*       <PA2>-2.883271e-12</PA2>
*
*       <PTCA0>5.252467e+05</PTCA0>
*
*       <PTCA1>1.223042e+01</PTCA1>
*
*       <PTCA2>-3.567450e-01</PTCA2>
*
*       <PTCB0>2.516687e+01</PTCB0>
*
*       <PTCB1>3.750000e-04</PTCB1>
*
*       <PTCB2>0.000000e+00</PTCB2>
*
*       <PTEMPA0>-5.487846e+01</PTEMPA0>
*
*       <PTEMPA1>5.537568e+01</PTEMPA1>
*
*       <PTEMPA2>-5.867271e-01</PTEMPA2>
*
*       <POFFSET>7.140000e-01</POFFSET>
*
*       <PRANGE>1.600000e+02</PRANGE>
*
*    </Calibration>
*
*    <Calibration format='VOLT0' id='Volt 0'>
*
*       <OFFSET>-4.920000e-02</OFFSET>
*
*       <SLOPE>1.248122e+00</SLOPE>
*
*    </Calibration>
*
*    <Calibration format='VOLT0' id='Volt 1'>
*
*       <OFFSET>-4.784000e-02</OFFSET>
*
*       <SLOPE>1.248871e+00</SLOPE>
*
*    </Calibration>
*
*    <Calibration format='VOLT0' id='Volt 2'>
*
*       <OFFSET>-4.864632e-02</OFFSET>
*
*       <SLOPE>1.248714e+00</SLOPE>
*
*    </Calibration>
*
*    <Calibration format='VOLT0' id='Volt 3'>
*
*       <OFFSET>-4.743790e-02</OFFSET>
*
*       <SLOPE>1.248571e+00</SLOPE>
*
*    </Calibration>
*
*    <Calibration format='VOLT0' id='Volt 4'>
*
*       <OFFSET>-4.671263e-02</OFFSET>
*
*       <SLOPE>1.248951e+00</SLOPE>
*
*    </Calibration>
*
*    <Calibration format='VOLT0' id='Volt 5'>
*
*       <OFFSET>-4.871053e-02</OFFSET>
*
*       <SLOPE>1.249136e+00</SLOPE>
*
*    </Calibration>
*
*    <Calibration format='FREQ0' id='external frequency channel'>
*
*       <EXTFREQSF>1.000014e+00</EXTFREQSF>
*
*    </Calibration>
*
* </CalibrationCoefficients>
* <EventCounters DeviceType='SBE19plus' SerialNumber='01907809'>
*
*    <EventSummary numEvents='0'/>
*
* </EventCounters></InstrumentState>
* <Headers>
*
* cast   4 10 Jun 2019 12:19:39 samples 2267 to 2918, avg = 1, stop = mag switch
*
# nquan = 18
# nvalues = 529                         
# units = specified
# name 0 = depFM: Depth [fresh water, m]
# name 1 = tv290C: Temperature [ITS-90, deg C]
# name 2 = sbeox0Mg/L: Oxygen, SBE 43 [mg/l]
# name 3 = sbeox0PS: Oxygen, SBE 43 [% saturation]
# name 4 = c0uS/cm: Conductivity [uS/cm]
# name 5 = specc: Specific Conductance [uS/cm]
# name 6 = ph: pH
# name 7 = orp: Oxidation Reduction Potential [mV]
# name 8 = flECO-AFL: Fluorescence, WET Labs ECO-AFL/FL [mg/m^3]
# name 9 = turbWETntu0: Turbidity, WET Labs ECO [NTU]
# name 10 = sal00: Salinity, Practical [PSU]
# name 11 = dz/dtM: Descent Rate [m/s]
# name 12 = prdM: Pressure, Strain Gauge [db]
# name 13 = prdE: Pressure, Strain Gauge [psi]
# name 14 = scan: Scan Count
# name 15 = par/sat/log: PAR/Logarithmic, Satlantic
# name 16 = density00: Density [density, kg/m^3]
# name 17 = flag:  0.000e+00
# span 0 =     -0.591,      5.378       
# span 1 =     9.8437,    21.8022       
# span 2 =     1.6020,    12.7321       
# span 3 =     14.345,    131.868       
# span 4 =   0.902047,  31.412692       
# span 5 =      0.994,     37.881       
# span 6 =      7.007,     10.103       
# span 7 =  -859.0687,   294.8203       
# span 8 =    -0.1598,     3.7694       
# span 9 =    -0.6287,    15.8676       
# span 10 =     0.0102,     0.0222      
# span 11 =     -0.102,      0.257      
# span 12 =     -0.580,      5.273      
# span 13 =     -0.841,      7.648      
# span 14 =          1,        529      
# span 15 = 6.3179e+00, 1.1650e+03      
# span 16 =   997.8334,   999.7551      
# span 17 = 0.0000e+00, 0.0000e+00      
# interval = seconds: 0.25
# start_time = Jun 10 2019 12:19:39 [Instrument's time stamp, header]
# bad_flag = -9.990e-29
# <Sensors count="9" >
#   <sensor Channel="1" >
#     <!-- Count, Temperature -->
#     <TemperatureSensor SensorID="58" >
#       <SerialNumber>7809</SerialNumber>
#       <CalibrationDate>24-Mar-19</CalibrationDate>
#       <A0>1.21792325e-003</A0>
#       <A1>2.81669265e-004</A1>
#       <A2>-1.60333336e-006</A2>
#       <A3>1.98414625e-007</A3>
#       <Slope>1.00000000</Slope>
#       <Offset>0.0000</Offset>
#     </TemperatureSensor>
#   </sensor>
#   <sensor Channel="2" >
#     <!-- Frequency 0, Conductivity -->
#     <ConductivitySensor SensorID="3" >
#       <SerialNumber>7809</SerialNumber>
#       <CalibrationDate>24-Mar-19</CalibrationDate>
#       <UseG_J>1</UseG_J>
#       <!-- Cell const and series R are applicable only for wide range sensors. -->
#       <SeriesR>0.0000</SeriesR>
#       <CellConst>2000.0000</CellConst>
#       <ConductivityType>0</ConductivityType>
#       <Coefficients equation="0" >
#         <A>0.00000000e+000</A>
#         <B>0.00000000e+000</B>
#         <C>0.00000000e+000</C>
#         <D>0.00000000e+000</D>
#         <M>0.0</M>
#         <CPcor>-9.57000000e-008</CPcor>
#       </Coefficients>
#       <Coefficients equation="1" >
#         <G>-1.00589325e+000</G>
#         <H>1.26816302e-001</H>
#         <I>-1.51560448e-004</I>
#         <J>2.67137274e-005</J>
#         <CPcor>-9.57000000e-008</CPcor>
#         <CTcor>3.2500e-006</CTcor>
#         <!-- WBOTC not applicable unless ConductivityType = 1. -->
#         <WBOTC>0.00000000e+000</WBOTC>
#       </Coefficients>
#       <Slope>1.00000000</Slope>
#       <Offset>0.00000</Offset>
#     </ConductivitySensor>
#   </sensor>
#   <sensor Channel="3" >
#     <!-- Count, Pressure, Strain Gauge -->
#     <PressureSensor SensorID="46" >
#       <SerialNumber>7809</SerialNumber>
#       <CalibrationDate>11-Mar-19</CalibrationDate>
#       <PA0>4.56561833e-002</PA0>
#       <PA1>4.85095118e-004</PA1>
#       <PA2>-2.88327090e-012</PA2>
#       <PTEMPA0>-5.48784562e+001</PTEMPA0>
#       <PTEMPA1>5.53756816e+001</PTEMPA1>
#       <PTEMPA2>-5.86727098e-001</PTEMPA2>
#       <PTCA0>5.25246745e+005</PTCA0>
#       <PTCA1>1.22304214e+001</PTCA1>
#       <PTCA2>-3.56745036e-001</PTCA2>
#       <PTCB0>2.51668750e+001</PTCB0>
#       <PTCB1>3.75000000e-004</PTCB1>
#       <PTCB2>0.00000000e+000</PTCB2>
#       <Offset>0.000000</Offset>
#     </PressureSensor>
#   </sensor>
#   <sensor Channel="4" >
#     <!-- A/D voltage 0, Oxygen, SBE 43 -->
#     <OxygenSensor SensorID="38" >
#       <SerialNumber>0434</SerialNumber>
#       <CalibrationDate>13-Apr-19</CalibrationDate>
#       <Use2007Equation>1</Use2007Equation>
#       <CalibrationCoefficients equation="0" >
#         <!-- Coefficients for Owens-Millard equation. -->
#         <Boc>0.0000</Boc>
#         <Soc>0.0000e+000</Soc>
#         <offset>0.0000</offset>
#         <Pcor>0.00e+000</Pcor>
#         <Tcor>0.0000</Tcor>
#         <Tau>0.0</Tau>
#       </CalibrationCoefficients>
#       <CalibrationCoefficients equation="1" >
#         <!-- Coefficients for Sea-Bird equation - SBE calibration in 2007 and later. -->
#         <Soc>4.2007e-001</Soc>
#         <offset>-0.6109</offset>
#         <A>-4.3656e-003</A>
#         <B> 1.7017e-004</B>
#         <C>-2.5341e-006</C>
#         <D0> 2.5826e+000</D0>
#         <D1> 1.92634e-004</D1>
#         <D2>-4.64803e-002</D2>
#         <E> 3.6000e-002</E>
#         <Tau20> 1.1800</Tau20>
#         <H1>-3.3000e-002</H1>
#         <H2> 5.0000e+003</H2>
#         <H3> 1.4500e+003</H3>
#       </CalibrationCoefficients>
#     </OxygenSensor>
#   </sensor>
#   <sensor Channel="5" >
#     <!-- A/D voltage 1, PAR/Logarithmic, Satlantic -->
#     <PARLog_SatlanticSensor SensorID="76" >
#       <SerialNumber>1122</SerialNumber>
#       <CalibrationDate>08-May-2019</CalibrationDate>
#       <a0>9.7456e-001</a0>
#       <a1>8.1640e-001</a1>
#       <Im>1.3589e+000</Im>
#       <Multiplier>1.0000e+000</Multiplier>
#     </PARLog_SatlanticSensor>
#   </sensor>
#   <sensor Channel="6" >
#     <!-- A/D voltage 2, pH -->
#     <pH_Sensor SensorID="43" >
#       <SerialNumber>0363</SerialNumber>
#       <CalibrationDate>15-Apr-19</CalibrationDate>
#       <Slope>4.5952</Slope>
#       <Offset>2.5370</Offset>
#     </pH_Sensor>
#   </sensor>
#   <sensor Channel="7" >
#     <!-- A/D voltage 3, Oxidation Reduction Potential -->
#     <OxidationReductionPotentialSensor SensorID="41" >
#       <SerialNumber>0363</SerialNumber>
#       <CalibrationDate>15-Apr-19</CalibrationDate>
#       <B>2.499480</B>
#       <M>-0.496195</M>
#       <Offset>0.0</Offset>
#     </OxidationReductionPotentialSensor>
#   </sensor>
#   <sensor Channel="8" >
#     <!-- A/D voltage 4, Fluorometer, WET Labs ECO-AFL/FL -->
#     <FluoroWetlabECO_AFL_FL_Sensor SensorID="20" >
#       <SerialNumber>FLNTURT-2496</SerialNumber>
#       <CalibrationDate>08-May-2019</CalibrationDate>
#       <ScaleFactor>5.00000000e+001</ScaleFactor>
#       <!-- Dark output -->
#       <Vblank>0.0550</Vblank>
#     </FluoroWetlabECO_AFL_FL_Sensor>
#   </sensor>
#   <sensor Channel="9" >
#     <!-- A/D voltage 5, Turbidity Meter, WET Labs, ECO-NTU -->
#     <TurbidityMeter SensorID="67" >
#       <SerialNumber>FLNTURT-2496</SerialNumber>
#       <CalibrationDate>08-May-2019</CalibrationDate>
#       <ScaleFactor>189.000000</ScaleFactor>
#       <!-- Dark output -->
#       <DarkVoltage>0.071000</DarkVoltage>
#     </TurbidityMeter>
#   </sensor>
# </Sensors>
# datcnv_date = Jun 10 2019 13:33:10, 7.26.7.129 [datcnv_vars = 17]
# datcnv_in = C:\DATA\061019_fcr30.hex C:\DATA\SBE19plusV2_7809.xmlcon
# datcnv_skipover = 0
# datcnv_ox_hysteresis_correction = yes
# datcnv_ox_tau_correction = yes
# filter_date = Jun 10 2019 13:33:32, 7.26.7.129
# filter_in = C:\DATA\061019_fcr30.cnv
# filter_low_pass_tc_A = 0.030
# filter_low_pass_tc_B = 0.150
# filter_low_pass_A_vars = tv290C c0uS/cm par/sat/log density00
# filter_low_pass_B_vars = prdM prdE
# alignctd_date = Jun 10 2019 13:33:50, 7.26.7.129
# alignctd_in = C:\DATA\061019_fcr30.cnv
# alignctd_adv = tv290C 0.500, sbeox0Mg/L 3.000, sbeox0PS 3.000                                                                                                                                                                      
# file_type = ascii
*END*
     -0.591    20.7348     8.7538     97.693   0.902047      0.994      7.011  -772.5649    -0.1293     0.0491     0.0102 2.1053e-16     -0.580     -0.841          1 1.1650e+03   998.0562 0.0000e+00
     -0.590    20.7350     8.7505     97.657   1.157254      1.238      7.014  -775.7828    -0.0911    -0.0230     0.0103      0.000     -0.579     -0.840          2 1.1599e+03   998.0561 0.0000e+00
     -0.590    20.7351     8.7539     97.695   1.631219      1.817      7.016  -795.8471    -0.1293    -0.0374     0.0103      0.000     -0.579     -0.840          3 1.1513e+03   998.0561 0.0000e+00
     -0.591    20.7353     8.7542     97.698   1.673032      1.817      7.010  -793.8407    -0.1102    -0.2393     0.0103      0.000     -0.579     -0.840          4 1.1290e+03   998.0561 0.0000e+00
     -0.590    20.7356     8.7557     97.715   1.489798      1.634      7.009  -798.3078    -0.1254    -0.1816     0.0103      0.000     -0.579     -0.840          5 1.0879e+03   998.0560 0.0000e+00
     -0.590    20.7358     8.7601     97.765   1.622582      1.756      7.010  -808.4536    -0.1102    -0.0807     0.0103      0.000     -0.579     -0.840          6 1.0542e+03   998.0560 0.0000e+00
     -0.591    20.7359     8.7592     97.755   1.892374      2.091      7.012  -811.4443    -0.1254    -0.3403     0.0104      0.000     -0.579     -0.840          7 9.9375e+02   998.0560 0.0000e+00
     -0.590    20.7362     8.7502     97.729   1.804888      1.969      7.010  -813.3750    -0.1026    -0.3691     0.0104      0.000     -0.579     -0.840          8 9.2840e+02   998.0559 0.0000e+00
     -0.590    20.7363     8.7100     97.713   1.613121      1.756      7.007  -809.6650    -0.1254    -0.4412     0.0103      0.000     -0.579     -0.840          9 9.0329e+02   998.0559 0.0000e+00
     -0.590    20.7367     8.6700     97.659   1.598517      1.756      7.008  -812.9207    -0.1178    -0.5277     0.0103      0.000     -0.579     -0.839         10 8.9607e+02   998.0558 0.0000e+00
     -0.590    20.7364     8.6462     97.674   1.615976      1.756      7.023  -843.4337    -0.1445    -0.5566     0.0103      0.000     -0.579     -0.839         11 8.6968e+02   998.0558 0.0000e+00
     -0.590    20.7371     8.6255     97.655   1.532226      1.695      7.018  -837.9444    -0.1331    -0.6287     0.0103      0.000     -0.579     -0.839         12 8.3314e+02   998.0557 0.0000e+00
     -0.589    20.7363     8.6092     97.656   1.584408      1.695      7.018  -836.9979    -0.1407    -0.4845     0.0103      0.000     -0.578     -0.838         13 8.2862e+02   998.0558 0.0000e+00
     -0.589    20.7380     8.6051     97.746   1.491870      1.695      7.013  -834.3858    -0.1407    -0.5421     0.0103      0.001     -0.578     -0.838         14 8.5468e+02   998.0556 0.0000e+00
     -0.590    20.7353     8.6172     97.974   1.588221      1.634      7.017  -846.4622    -0.1407    -0.4845     0.0103      0.001     -0.578     -0.838         15 8.6200e+02   998.0558 0.0000e+00
     -0.589    20.7396     8.6523     98.420   1.346168      1.634      7.019  -840.8215    -0.1140    -0.4556     0.0103      0.000     -0.578     -0.838         16 8.5622e+02   998.0553 0.0000e+00
     -0.590    20.7324     8.7051     99.042   1.733935      1.634      7.018  -859.0687    -0.1254    -0.4989     0.0103      0.000     -0.577     -0.837         17 8.7892e+02   998.0560 0.0000e+00
     -0.587    20.7849     8.7692     99.775   1.046484      1.573      7.171   136.1606    -0.1483    -0.5133     0.0103      0.001     -0.567     -0.823         18 9.1209e+02   998.0550 0.0000e+00
     -0.558    20.9946     8.8471    100.638   1.965020      1.451      7.318   186.7757    -0.1483    -0.4412     0.0103      0.009     -0.540     -0.783         19 9.4861e+02   998.0569 0.0000e+00
     -0.508    21.2087     8.9219    101.468  11.095589     12.566      7.371   269.4181    -0.1598    -0.4556     0.0136      0.028     -0.494     -0.717         20 1.0095e+03   998.0482 0.0000e+00
     -0.447    21.3529     8.9892    102.225  22.712881     24.331      7.785   279.0339    -0.1102    -0.4556     0.0182      0.058     -0.437     -0.635         21 1.0521e+03   998.0069 0.0000e+00
     -0.384    21.4702     9.0373    102.757  29.901790     32.890      8.371   276.3081    -0.1331    -0.5566     0.0217      0.095     -0.377     -0.547         22 1.0897e+03   997.9630 0.0000e+00
