* Sea-Bird SBE19plus  Data File:
* FileName = C:\DATA\070319_bvr50_0002.hex
* Software version 2.8.0.119 SB_Terminal.dll
* Temperature SN = 7809
* Conductivity SN = 7809
* System UpLoad Time = Jul 03 2019 10:54:15
* <ApplicationData>
* <Seaterm232>
* <SoftwareVersion>2.8.0.119</SoftwareVersion>
* <BuildDate>07-Nov-2018</BuildDate>
* </Seaterm232>
* </ApplicationData>
* cast   2 03 Jul 2019 10:42:52 samples 1243 to 2408, avg = 1, stop = mag switch
# nquan = 16
# nvalues = 920                         
# units = specified
# name 0 = depFM: Depth [fresh water, m]
# name 1 = dz/dtM: Descent Rate [m/s]
# name 2 = sbeox0Mg/L: Oxygen, SBE 43 [mg/l]
# name 3 = sbeox0PS: Oxygen, SBE 43 [% saturation]
# name 4 = specc: Specific Conductance [uS/cm]
# name 5 = c0uS/cm: Conductivity [uS/cm]
# name 6 = flECO-AFL: Fluorescence, WET Labs ECO-AFL/FL [mg/m^3]
# name 7 = ph: pH
# name 8 = orp: Oxidation Reduction Potential [mV]
# name 9 = par/sat/log: PAR/Logarithmic, Satlantic
# name 10 = turbWETntu0: Turbidity, WET Labs ECO [NTU]
# name 11 = prdM: Pressure, Strain Gauge [db]
# name 12 = prdE: Pressure, Strain Gauge [psi]
# name 13 = tv290C: Temperature [ITS-90, deg C]
# name 14 = density00: Density [density, kg/m^3]
# name 15 = flag:  0.000e+00
# span 0 =     -0.681,     10.511       
# span 1 =     -0.135,      0.151       
# span 2 =    -0.2312,     8.1846       
# span 3 =     -2.095,    100.500       
# span 4 =      0.980,    123.458       
# span 5 =   1.009230,  82.582995       
# span 6 =    -0.1672,     8.6472       
# span 7 =      6.641,      9.369       
# span 8 =   115.4246,   763.0092       
# span 9 = 1.2348e-01, 1.9945e+03       
# span 10 =    -4.3604,   579.6680      
# span 11 =     -0.668,     10.309      
# span 12 =     -0.970,     14.951      
# span 13 =     8.4322,    26.6435      
# span 14 =   996.6270,   999.9179      
# span 15 = 0.0000e+00, 0.0000e+00      
# interval = seconds: 0.25
# start_time = Jul 03 2019 10:42:52 [Instrument's time stamp, header]
# bad_flag = -9.990e-29
# <Sensors count="9" >
#   <sensor Channel="1" >
#     <!-- Count, Temperature -->
#     <TemperatureSensor SensorID="58" >
#       <SerialNumber>7809</SerialNumber>
#       <CalibrationDate>24-Mar-19</CalibrationDate>
#       <A0>1.21792325e-003</A0>
#       <A1>2.81669265e-004</A1>
#       <A2>-1.60333336e-006</A2>
#       <A3>1.98414625e-007</A3>
#       <Slope>1.00000000</Slope>
#       <Offset>0.0000</Offset>
#     </TemperatureSensor>
#   </sensor>
#   <sensor Channel="2" >
#     <!-- Frequency 0, Conductivity -->
#     <ConductivitySensor SensorID="3" >
#       <SerialNumber>7809</SerialNumber>
#       <CalibrationDate>24-Mar-19</CalibrationDate>
#       <UseG_J>1</UseG_J>
#       <!-- Cell const and series R are applicable only for wide range sensors. -->
#       <SeriesR>0.0000</SeriesR>
#       <CellConst>2000.0000</CellConst>
#       <ConductivityType>0</ConductivityType>
#       <Coefficients equation="0" >
#         <A>0.00000000e+000</A>
#         <B>0.00000000e+000</B>
#         <C>0.00000000e+000</C>
#         <D>0.00000000e+000</D>
#         <M>0.0</M>
#         <CPcor>-9.57000000e-008</CPcor>
#       </Coefficients>
#       <Coefficients equation="1" >
#         <G>-1.00589325e+000</G>
#         <H>1.26816302e-001</H>
#         <I>-1.51560448e-004</I>
#         <J>2.67137274e-005</J>
#         <CPcor>-9.57000000e-008</CPcor>
#         <CTcor>3.2500e-006</CTcor>
#         <!-- WBOTC not applicable unless ConductivityType = 1. -->
#         <WBOTC>0.00000000e+000</WBOTC>
#       </Coefficients>
#       <Slope>1.00000000</Slope>
#       <Offset>0.00000</Offset>
#     </ConductivitySensor>
#   </sensor>
#   <sensor Channel="3" >
#     <!-- Count, Pressure, Strain Gauge -->
#     <PressureSensor SensorID="46" >
#       <SerialNumber>7809</SerialNumber>
#       <CalibrationDate>11-Mar-19</CalibrationDate>
#       <PA0>4.56561833e-002</PA0>
#       <PA1>4.85095118e-004</PA1>
#       <PA2>-2.88327090e-012</PA2>
#       <PTEMPA0>-5.48784562e+001</PTEMPA0>
#       <PTEMPA1>5.53756816e+001</PTEMPA1>
#       <PTEMPA2>-5.86727098e-001</PTEMPA2>
#       <PTCA0>5.25246745e+005</PTCA0>
#       <PTCA1>1.22304214e+001</PTCA1>
#       <PTCA2>-3.56745036e-001</PTCA2>
#       <PTCB0>2.51668750e+001</PTCB0>
#       <PTCB1>3.75000000e-004</PTCB1>
#       <PTCB2>0.00000000e+000</PTCB2>
#       <Offset>0.000000</Offset>
#     </PressureSensor>
#   </sensor>
#   <sensor Channel="4" >
#     <!-- A/D voltage 0, Oxygen, SBE 43 -->
#     <OxygenSensor SensorID="38" >
#       <SerialNumber>0434</SerialNumber>
#       <CalibrationDate>13-Apr-19</CalibrationDate>
#       <Use2007Equation>1</Use2007Equation>
#       <CalibrationCoefficients equation="0" >
#         <!-- Coefficients for Owens-Millard equation. -->
#         <Boc>0.0000</Boc>
#         <Soc>0.0000e+000</Soc>
#         <offset>0.0000</offset>
#         <Pcor>0.00e+000</Pcor>
#         <Tcor>0.0000</Tcor>
#         <Tau>0.0</Tau>
#       </CalibrationCoefficients>
#       <CalibrationCoefficients equation="1" >
#         <!-- Coefficients for Sea-Bird equation - SBE calibration in 2007 and later. -->
#         <Soc>4.2007e-001</Soc>
#         <offset>-0.6109</offset>
#         <A>-4.3656e-003</A>
#         <B> 1.7017e-004</B>
#         <C>-2.5341e-006</C>
#         <D0> 2.5826e+000</D0>
#         <D1> 1.92634e-004</D1>
#         <D2>-4.64803e-002</D2>
#         <E> 3.6000e-002</E>
#         <Tau20> 1.1800</Tau20>
#         <H1>-3.3000e-002</H1>
#         <H2> 5.0000e+003</H2>
#         <H3> 1.4500e+003</H3>
#       </CalibrationCoefficients>
#     </OxygenSensor>
#   </sensor>
#   <sensor Channel="5" >
#     <!-- A/D voltage 1, PAR/Logarithmic, Satlantic -->
#     <PARLog_SatlanticSensor SensorID="76" >
#       <SerialNumber>1122</SerialNumber>
#       <CalibrationDate>08-May-2019</CalibrationDate>
#       <a0>9.7456e-001</a0>
#       <a1>8.1640e-001</a1>
#       <Im>1.3589e+000</Im>
#       <Multiplier>1.0000e+000</Multiplier>
#     </PARLog_SatlanticSensor>
#   </sensor>
#   <sensor Channel="6" >
#     <!-- A/D voltage 2, pH -->
#     <pH_Sensor SensorID="43" >
#       <SerialNumber>0363</SerialNumber>
#       <CalibrationDate>15-Apr-19</CalibrationDate>
#       <Slope>4.5952</Slope>
#       <Offset>2.5370</Offset>
#     </pH_Sensor>
#   </sensor>
#   <sensor Channel="7" >
#     <!-- A/D voltage 3, Oxidation Reduction Potential -->
#     <OxidationReductionPotentialSensor SensorID="41" >
#       <SerialNumber>0363</SerialNumber>
#       <CalibrationDate>15-Apr-19</CalibrationDate>
#       <B>2.499480</B>
#       <M>-0.496195</M>
#       <Offset>0.0</Offset>
#     </OxidationReductionPotentialSensor>
#   </sensor>
#   <sensor Channel="8" >
#     <!-- A/D voltage 4, Fluorometer, WET Labs ECO-AFL/FL -->
#     <FluoroWetlabECO_AFL_FL_Sensor SensorID="20" >
#       <SerialNumber>FLNTURT-2496</SerialNumber>
#       <CalibrationDate>08-May-2019</CalibrationDate>
#       <ScaleFactor>5.00000000e+001</ScaleFactor>
#       <!-- Dark output -->
#       <Vblank>0.0550</Vblank>
#     </FluoroWetlabECO_AFL_FL_Sensor>
#   </sensor>
#   <sensor Channel="9" >
#     <!-- A/D voltage 5, Turbidity Meter, WET Labs, ECO-NTU -->
#     <TurbidityMeter SensorID="67" >
#       <SerialNumber>FLNTURT-2496</SerialNumber>
#       <CalibrationDate>08-May-2019</CalibrationDate>
#       <ScaleFactor>189.000000</ScaleFactor>
#       <!-- Dark output -->
#       <DarkVoltage>0.071000</DarkVoltage>
#     </TurbidityMeter>
#   </sensor>
# </Sensors>
# datcnv_date = Jul 03 2019 10:55:23, 7.26.7.129 [datcnv_vars = 15]
# datcnv_in = C:\DATA\070319_bvr50_0002.hex C:\DATA\SBE19plusV2_7809.xmlcon
# datcnv_skipover = 0
# datcnv_ox_hysteresis_correction = yes
# datcnv_ox_tau_correction = yes
# filter_date = Jul 03 2019 10:55:50, 7.26.7.129
# filter_in = C:\DATA\070319_bvr50_0002.cnv
# filter_low_pass_tc_A = 0.030
# filter_low_pass_tc_B = 0.150
# filter_low_pass_A_vars = prdM prdE tv290C density00
# filter_low_pass_B_vars = depFM dz/dtM sbeox0Mg/L sbeox0PS specc c0uS/cm flECO-AFL ph orp par/sat/log turbWETntu0
# alignctd_date = Jul 03 2019 10:56:14, 7.26.7.129
# alignctd_in = C:\DATA\070319_bvr50_0002.cnv
# alignctd_adv = dz/dtM 1.000, sbeox0Mg/L 1.000, sbeox0PS 1.000, specc 1.000, c0uS/cm 1.000, flECO-AFL 1.000, ph 1.000, orp 1.000, turbWETntu0 1.000                                                                                 
# file_type = ascii
*END*
     -0.680 4.5732e-31     7.0559     87.705      1.073   1.104015    -0.1103      6.760   763.0092 1.9736e+03    -0.2937     -0.667     -0.968    26.4621   996.6678 0.0000e+00
     -0.681 5.0305e-30     7.0560     87.707      1.072   1.103051    -0.0984      6.761   751.5286 1.9721e+03    -0.2912     -0.668     -0.968    26.4625   996.6677 0.0000e+00
     -0.681 5.5336e-29     7.0557     87.703      1.060   1.091416    -0.0916      6.762   742.5284 1.9704e+03    -0.2689     -0.668     -0.969    26.4629   996.6676 0.0000e+00
     -0.680 6.0870e-28     7.0556     87.702      1.059   1.090066    -0.0973      6.761   734.6350 1.9721e+03    -0.2864     -0.667     -0.968    26.4632   996.6676 0.0000e+00
     -0.680 6.6957e-27     7.0557     87.705      1.056   1.086724    -0.0982      6.760   726.2976 1.9789e+03    -0.3057     -0.667     -0.967    26.4635   996.6674 0.0000e+00
     -0.680 7.3652e-26     7.0563     87.714      1.021   1.051013    -0.0938      6.759   718.8134 1.9873e+03    -0.2728     -0.668     -0.968    26.4637   996.6674 0.0000e+00
     -0.680 8.1017e-25     7.0571     87.724      1.008   1.038436    -0.0959      6.758   712.1155 1.9913e+03    -0.2495     -0.667     -0.968    26.4642   996.6673 0.0000e+00
     -0.680 8.9119e-24     7.0569     87.722      1.031   1.061380    -0.1065      6.758   705.8001 1.9917e+03    -0.2534     -0.667     -0.968    26.4645   996.6672 0.0000e+00
     -0.680 9.8031e-23     7.0558     87.709      1.045   1.074986    -0.1187      6.758   700.3588 1.9922e+03    -0.2540     -0.667     -0.968    26.4647   996.6671 0.0000e+00
     -0.681 1.0783e-21     7.0553     87.704      1.046   1.076223    -0.1136      6.758   696.9156 1.9927e+03    -0.2570     -0.668     -0.968    26.4652   996.6670 0.0000e+00
     -0.681 1.1862e-20     7.0549     87.700      1.046   1.076334    -0.1047      6.756   693.5940 1.9933e+03    -0.2569     -0.668     -0.968    26.4657   996.6669 0.0000e+00
     -0.681 1.3048e-19     7.0534     87.683      1.046   1.076334    -0.0984      6.756   687.6440 1.9945e+03    -0.2531     -0.668     -0.968    26.4661   996.6667 0.0000e+00
     -0.681 1.4353e-18     7.0522     87.668      1.045   1.076221    -0.0889      6.757   682.0185 1.9910e+03    -0.2437     -0.668     -0.969    26.4665   996.6666 0.0000e+00
     -0.681 1.5788e-17     7.0517     87.662      1.044   1.074973    -0.0937      6.757   677.5440 1.9780e+03    -0.2412     -0.667     -0.968    26.4674   996.6664 0.0000e+00
     -0.681 1.7367e-16     7.0523     87.670      1.030   1.061244    -0.1052      6.757   662.1085 1.9693e+03    -0.2554     -0.668     -0.969    26.4680   996.6662 0.0000e+00
     -0.681 1.9103e-15     7.0536     87.688      1.007   1.036939    -0.1060      6.759   650.0880 1.9715e+03    -0.2517     -0.668     -0.969    26.4686   996.6661 0.0000e+00
     -0.681 2.1014e-14     7.0539     87.692      1.005   1.034541    -0.0943      6.762   668.4920 1.9643e+03    -0.2296     -0.667     -0.968    26.4694   996.6659 0.0000e+00
     -0.681 2.3115e-13     7.0536     87.690      1.002   1.032249    -0.0862      6.765   692.4181 1.9198e+03    -0.2181     -0.668     -0.969    26.4697   996.6658 0.0000e+00
     -0.681 2.5427e-12     7.0539     87.695      0.980   1.009230    -0.0944      6.767   700.1867 1.6656e+03    -0.2428     -0.668     -0.969    26.4702   996.6656 0.0000e+00
     -0.681 2.7969e-11     7.0542     87.700      0.981   1.009660    -0.1067      6.767   699.8711 1.1206e+03    -0.3321     -0.668     -0.969    26.4708   996.6655 0.0000e+00
     -0.681 3.0766e-10     7.0547     87.708      1.007   1.037449    -0.1044      6.767   694.9691 7.6154e+02    -0.4454     -0.667     -0.968    26.4711   996.6654 0.0000e+00
     -0.681 3.3843e-09     7.0553     87.718      1.060   1.091786    -0.0928      6.766   692.6269 9.3817e+02    -0.4983     -0.668     -0.969    26.4719   996.6652 0.0000e+00
     -0.681 3.7227e-08     7.0558     87.727      1.126   1.159763    -0.0964      6.764   694.3514 1.2520e+03    -0.4808     -0.668     -0.969    26.4729   996.6649 0.0000e+00
     -0.681 4.0950e-07     7.0566     87.740      1.191   1.225750    -0.1049      6.764   692.2464 1.3365e+03    -0.4629     -0.668     -0.970    26.4740   996.6646 0.0000e+00
     -0.681      0.000     7.0585     87.765      1.281   1.319398    -0.1001      6.765   686.5343 1.2793e+03    -0.4779     -0.668     -0.969    26.4754   996.6642 0.0000e+00
     -0.681      0.000     7.0623     87.815      1.364   1.405001    -0.0994      6.767   681.5561 1.1783e+03    -0.4985     -0.668     -0.970    26.4769   996.6639 0.0000e+00
     -0.681      0.001     7.0676     87.883      1.395   1.437079    -0.1050      6.767   678.5164 1.0212e+03    -0.5145     -0.668     -0.968    26.4783   996.6635 0.0000e+00
     -0.681      0.001     7.0737     87.960      1.411   1.453809    -0.0986      6.767   677.1421 8.3269e+02    -0.5081     -0.667     -0.969    26.4800   996.6630 0.0000e+00
     -0.681      0.001     7.0797     88.035      1.437   1.480560    -0.0912      6.767   674.9205 6.5819e+02    -0.4880     -0.668     -0.968    26.4817   996.6625 0.0000e+00
     -0.680      0.000     7.0844     88.095      1.463   1.507080    -0.0929      6.767   671.3583 5.1132e+02    -0.5003     -0.667     -0.967    26.4831   996.6622 0.0000e+00
     -0.680 1.8614e-08     7.0886     88.150      1.477   1.521012    -0.0933      6.763   667.0250 4.0719e+02    -0.5253     -0.667     -0.968    26.4843   996.6619 0.0000e+00
     -0.680 2.0475e-07     7.0919     88.192      1.478   1.522288    -0.0968      6.761   664.0840 3.6547e+02    -0.4953     -0.667     -0.968    26.4852   996.6616 0.0000e+00
     -0.681 2.0475e-07     7.0924     88.198      1.478   1.522506    -0.1006      6.761   661.8683 3.5370e+02    -0.4328     -0.667     -0.968    26.4859   996.6614 0.0000e+00
     -0.681 1.8614e-08     7.0914     88.186      1.479   1.523647    -0.0960      6.764   634.4701 3.3096e+02    -0.4252     -0.667     -0.968    26.4865   996.6613 0.0000e+00
     -0.681 1.6921e-09     7.0912     88.184      1.491   1.536091    -0.0925      6.767   595.4065 3.1404e+02    -0.4682     -0.668     -0.969    26.4872   996.6611 0.0000e+00
     -0.681 1.5383e-10     7.0917     88.190      1.501   1.546239    -0.0934      6.761   618.4598 3.1625e+02    -0.4944     -0.667     -0.968    26.4880   996.6609 0.0000e+00
     -0.681 1.3985e-11     7.0925     88.201      1.475   1.519616    -0.0979      6.753   665.8428 3.1532e+02    -0.4805     -0.668     -0.968    26.4886   996.6607 0.0000e+00
     -0.680 1.2714e-12     7.0953     88.236      1.425   1.467651    -0.1035      6.762   642.5236 3.1140e+02    -0.4636     -0.667     -0.967    26.4888   996.6607 0.0000e+00
     -0.680 1.1596e-13     7.1019     88.319      1.383   1.424816    -0.1000      6.774   588.6052 3.1738e+02    -0.4546     -0.666     -0.967    26.4887   996.6607 0.0000e+00
     -0.680 1.4788e-14     7.1125     88.451      1.342   1.381877    -0.0913      6.774   567.8403 3.2584e+02    -0.4696     -0.668     -0.969    26.4890   996.6606 0.0000e+00
     -0.680 4.8050e-14     7.1250     88.607      1.290   1.328642    -0.0838      6.770   568.0096 3.4213e+02    -0.5132     -0.667     -0.968    26.4894   996.6605 0.0000e+00
     -0.681 5.1813e-13     7.1367     88.754      1.251   1.288041    -0.0874      6.768   569.7442 4.6731e+02    -0.5232     -0.667     -0.968    26.4899   996.6604 0.0000e+00
     -0.681 5.6985e-12     7.1448     88.854      1.235   1.271141    -0.1013      6.766   570.8310 6.4052e+02    -0.4921     -0.668     -0.969    26.4904   996.6602 0.0000e+00
     -0.681 6.2683e-11     7.1493     88.912      1.215   1.251027    -0.1042      6.764   571.6856 6.2686e+02    -0.4645     -0.667     -0.968    26.4906   996.6601 0.0000e+00
     -0.681 6.8952e-10     7.1526     88.952      1.199   1.234922    -0.1046      6.762   571.4731 5.5282e+02    -0.4849     -0.667     -0.968    26.4906   996.6601 0.0000e+00
     -0.681 7.5847e-09     7.1552     88.985      1.230   1.266495    -0.1144      6.762   572.8216 5.8239e+02    -0.5429     -0.668     -0.969    26.4909   996.6601 0.0000e+00
     -0.681 8.3432e-08     7.1589     89.032      1.278   1.315972    -0.1106      6.765   580.1612 5.9328e+02    -0.5421     -0.668     -0.969    26.4911   996.6600 0.0000e+00
     -0.681 9.1775e-07     7.1668     89.130      1.349   1.389627    -0.0935      6.793   611.6890 6.4367e+02    -0.4751     -0.668     -0.969    26.4913   996.6600 0.0000e+00
     -0.681      0.000     7.1781     89.270      1.479   1.523442    -0.0892      6.895   662.7787 8.2988e+02    -0.4539     -0.667     -0.968    26.4915   996.6599 0.0000e+00
     -0.681      0.000     7.1897     89.415      1.618   1.666693    -0.0588      7.071   689.0463 1.0413e+03    -0.4822     -0.667     -0.968    26.4916   996.6599 0.0000e+00
     -0.681      0.001     7.2022     89.571      1.739   1.791069     0.0227      7.268   674.1824 1.2102e+03    -0.4902     -0.668     -0.969    26.4922   996.6597 0.0000e+00
     -0.681      0.003     7.2194     89.783      1.832   1.886758     0.0900      7.475   569.3576 1.3076e+03    -0.5170     -0.668     -0.969    26.4926   996.6596 0.0000e+00
     -0.681      0.008     7.2476     90.128      2.065   2.126665     0.1394      7.723   391.8839 1.3404e+03    -0.6101     -0.668     -0.969    26.4928   996.6595 0.0000e+00
     -0.680      0.016     7.2886     90.636      4.064   4.184868     0.4890      8.004   289.3279 1.3699e+03    -1.3207     -0.668     -0.970    26.4927   996.6596 0.0000e+00
     -0.677      0.024     7.3353     91.215      6.858   7.062557     1.1362      8.256   278.3752 1.4048e+03    -2.6530     -0.665     -0.965    26.4930   996.6594 0.0000e+00
     -0.671      0.028     7.3808     91.778      6.128   6.310960     1.4879      8.449   293.3550 1.4362e+03    -3.4137     -0.659     -0.956    26.4925   996.6597 0.0000e+00
     -0.660      0.023     7.4180     92.247      3.179   3.273682     1.5081      8.598   316.0075 1.4602e+03    -3.5048     -0.651     -0.944    26.4890   996.6605 0.0000e+00
     -0.643      0.014     7.4369     92.506      1.782   1.835754     1.4755      8.699   315.6569 1.4648e+03    -3.4591     -0.629     -0.913    26.4861   996.6617 0.0000e+00
     -0.631      0.007     7.4311     92.467      1.982   2.042593     1.0679      8.758   293.4176 1.4430e+03    -2.7632     -0.610     -0.885    26.4860   996.6632 0.0000e+00
     -0.636      0.004     7.4067     92.189      5.355   5.521073     0.3074      8.824   283.2055 1.4020e+03    -1.4811     -0.618     -0.896    26.4839   996.6632 0.0000e+00
     -0.654      0.004     7.3798     91.867     10.298  10.618230    -0.1160      8.906   285.7938 1.3675e+03    -0.7711     -0.646     -0.936    26.4823   996.6624 0.0000e+00
     -0.666      0.004     7.3609     91.635      9.564   9.861238    -0.1672      8.977   289.2650 1.3726e+03    -0.7009     -0.661     -0.958    26.4999   996.6578 0.0000e+00
     -0.660      0.005     7.3485     91.482      4.594   4.736765    -0.1558      9.041   317.6892 1.4040e+03    -0.4353     -0.652     -0.945    26.5264   996.6503 0.0000e+00
