* Sea-Bird SBE19plus  Data File:
* FileName = C:\DATA\061719_FCR_0007.hex
* Software version 2.8.0.119 SB_Terminal.dll
* Temperature SN = 7809
* Conductivity SN = 7809
* System UpLoad Time = Jun 17 2019 17:02:34
* <ApplicationData>
* <Seaterm232>
* <SoftwareVersion>2.8.0.119</SoftwareVersion>
* <BuildDate>07-Nov-2018</BuildDate>
* </Seaterm232>
* </ApplicationData>
* cast   7 17 Jun 2019 11:28:35 samples 5620 to 6756, avg = 1, stop = mag switch
# nquan = 16
# nvalues = 1041                        
# units = specified
# name 0 = depFM: Depth [fresh water, m]
# name 1 = dz/dtM: Descent Rate [m/s]
# name 2 = sbeox0Mg/L: Oxygen, SBE 43 [mg/l]
# name 3 = sbeox0PS: Oxygen, SBE 43 [% saturation]
# name 4 = specc: Specific Conductance [uS/cm]
# name 5 = c0uS/cm: Conductivity [uS/cm]
# name 6 = flECO-AFL: Fluorescence, WET Labs ECO-AFL/FL [mg/m^3]
# name 7 = ph: pH
# name 8 = orp: Oxidation Reduction Potential [mV]
# name 9 = par/sat/log: PAR/Logarithmic, Satlantic
# name 10 = turbWETntu0: Turbidity, WET Labs ECO [NTU]
# name 11 = prdM: Pressure, Strain Gauge [db]
# name 12 = prdE: Pressure, Strain Gauge [psi]
# name 13 = tv290C: Temperature [ITS-90, deg C]
# name 14 = density00: Density [density, kg/m^3]
# name 15 = flag:  0.000e+00
# span 0 =     -0.556,      7.296       
# span 1 =     -0.018,      0.127       
# span 2 =     2.7163,    11.4223       
# span 3 =     24.994,    118.375       
# span 4 =      1.672,     37.346       
# span 5 =   1.471610,  32.580704       
# span 6 =    -0.9515,     3.5230       
# span 7 =      6.974,      8.388       
# span 8 =   197.1308,   684.3072       
# span 9 = 2.1848e+00, 2.2458e+03       
# span 10 =    -0.7115,    81.4859      
# span 11 =     -0.545,      7.156      
# span 12 =     -0.791,     10.379      
# span 13 =    10.1904,    23.7754      
# span 14 =   997.3698,   999.7343      
# span 15 = 0.0000e+00, 0.0000e+00      
# interval = seconds: 0.25
# start_time = Jun 17 2019 11:28:35 [Instrument's time stamp, header]
# bad_flag = -9.990e-29
# <Sensors count="9" >
#   <sensor Channel="1" >
#     <!-- Count, Temperature -->
#     <TemperatureSensor SensorID="58" >
#       <SerialNumber>7809</SerialNumber>
#       <CalibrationDate>24-Mar-19</CalibrationDate>
#       <A0>1.21792325e-003</A0>
#       <A1>2.81669265e-004</A1>
#       <A2>-1.60333336e-006</A2>
#       <A3>1.98414625e-007</A3>
#       <Slope>1.00000000</Slope>
#       <Offset>0.0000</Offset>
#     </TemperatureSensor>
#   </sensor>
#   <sensor Channel="2" >
#     <!-- Frequency 0, Conductivity -->
#     <ConductivitySensor SensorID="3" >
#       <SerialNumber>7809</SerialNumber>
#       <CalibrationDate>24-Mar-19</CalibrationDate>
#       <UseG_J>1</UseG_J>
#       <!-- Cell const and series R are applicable only for wide range sensors. -->
#       <SeriesR>0.0000</SeriesR>
#       <CellConst>2000.0000</CellConst>
#       <ConductivityType>0</ConductivityType>
#       <Coefficients equation="0" >
#         <A>0.00000000e+000</A>
#         <B>0.00000000e+000</B>
#         <C>0.00000000e+000</C>
#         <D>0.00000000e+000</D>
#         <M>0.0</M>
#         <CPcor>-9.57000000e-008</CPcor>
#       </Coefficients>
#       <Coefficients equation="1" >
#         <G>-1.00589325e+000</G>
#         <H>1.26816302e-001</H>
#         <I>-1.51560448e-004</I>
#         <J>2.67137274e-005</J>
#         <CPcor>-9.57000000e-008</CPcor>
#         <CTcor>3.2500e-006</CTcor>
#         <!-- WBOTC not applicable unless ConductivityType = 1. -->
#         <WBOTC>0.00000000e+000</WBOTC>
#       </Coefficients>
#       <Slope>1.00000000</Slope>
#       <Offset>0.00000</Offset>
#     </ConductivitySensor>
#   </sensor>
#   <sensor Channel="3" >
#     <!-- Count, Pressure, Strain Gauge -->
#     <PressureSensor SensorID="46" >
#       <SerialNumber>7809</SerialNumber>
#       <CalibrationDate>11-Mar-19</CalibrationDate>
#       <PA0>4.56561833e-002</PA0>
#       <PA1>4.85095118e-004</PA1>
#       <PA2>-2.88327090e-012</PA2>
#       <PTEMPA0>-5.48784562e+001</PTEMPA0>
#       <PTEMPA1>5.53756816e+001</PTEMPA1>
#       <PTEMPA2>-5.86727098e-001</PTEMPA2>
#       <PTCA0>5.25246745e+005</PTCA0>
#       <PTCA1>1.22304214e+001</PTCA1>
#       <PTCA2>-3.56745036e-001</PTCA2>
#       <PTCB0>2.51668750e+001</PTCB0>
#       <PTCB1>3.75000000e-004</PTCB1>
#       <PTCB2>0.00000000e+000</PTCB2>
#       <Offset>0.000000</Offset>
#     </PressureSensor>
#   </sensor>
#   <sensor Channel="4" >
#     <!-- A/D voltage 0, Oxygen, SBE 43 -->
#     <OxygenSensor SensorID="38" >
#       <SerialNumber>0434</SerialNumber>
#       <CalibrationDate>13-Apr-19</CalibrationDate>
#       <Use2007Equation>1</Use2007Equation>
#       <CalibrationCoefficients equation="0" >
#         <!-- Coefficients for Owens-Millard equation. -->
#         <Boc>0.0000</Boc>
#         <Soc>0.0000e+000</Soc>
#         <offset>0.0000</offset>
#         <Pcor>0.00e+000</Pcor>
#         <Tcor>0.0000</Tcor>
#         <Tau>0.0</Tau>
#       </CalibrationCoefficients>
#       <CalibrationCoefficients equation="1" >
#         <!-- Coefficients for Sea-Bird equation - SBE calibration in 2007 and later. -->
#         <Soc>4.2007e-001</Soc>
#         <offset>-0.6109</offset>
#         <A>-4.3656e-003</A>
#         <B> 1.7017e-004</B>
#         <C>-2.5341e-006</C>
#         <D0> 2.5826e+000</D0>
#         <D1> 1.92634e-004</D1>
#         <D2>-4.64803e-002</D2>
#         <E> 3.6000e-002</E>
#         <Tau20> 1.1800</Tau20>
#         <H1>-3.3000e-002</H1>
#         <H2> 5.0000e+003</H2>
#         <H3> 1.4500e+003</H3>
#       </CalibrationCoefficients>
#     </OxygenSensor>
#   </sensor>
#   <sensor Channel="5" >
#     <!-- A/D voltage 1, PAR/Logarithmic, Satlantic -->
#     <PARLog_SatlanticSensor SensorID="76" >
#       <SerialNumber>1122</SerialNumber>
#       <CalibrationDate>08-May-2019</CalibrationDate>
#       <a0>9.7456e-001</a0>
#       <a1>8.1640e-001</a1>
#       <Im>1.3589e+000</Im>
#       <Multiplier>1.0000e+000</Multiplier>
#     </PARLog_SatlanticSensor>
#   </sensor>
#   <sensor Channel="6" >
#     <!-- A/D voltage 2, pH -->
#     <pH_Sensor SensorID="43" >
#       <SerialNumber>0363</SerialNumber>
#       <CalibrationDate>15-Apr-19</CalibrationDate>
#       <Slope>4.5952</Slope>
#       <Offset>2.5370</Offset>
#     </pH_Sensor>
#   </sensor>
#   <sensor Channel="7" >
#     <!-- A/D voltage 3, Oxidation Reduction Potential -->
#     <OxidationReductionPotentialSensor SensorID="41" >
#       <SerialNumber>0363</SerialNumber>
#       <CalibrationDate>15-Apr-19</CalibrationDate>
#       <B>2.499480</B>
#       <M>-0.496195</M>
#       <Offset>0.0</Offset>
#     </OxidationReductionPotentialSensor>
#   </sensor>
#   <sensor Channel="8" >
#     <!-- A/D voltage 4, Fluorometer, WET Labs ECO-AFL/FL -->
#     <FluoroWetlabECO_AFL_FL_Sensor SensorID="20" >
#       <SerialNumber>FLNTURT-2496</SerialNumber>
#       <CalibrationDate>08-May-2019</CalibrationDate>
#       <ScaleFactor>5.00000000e+001</ScaleFactor>
#       <!-- Dark output -->
#       <Vblank>0.0550</Vblank>
#     </FluoroWetlabECO_AFL_FL_Sensor>
#   </sensor>
#   <sensor Channel="9" >
#     <!-- A/D voltage 5, Turbidity Meter, WET Labs, ECO-NTU -->
#     <TurbidityMeter SensorID="67" >
#       <SerialNumber>FLNTURT-2496</SerialNumber>
#       <CalibrationDate>08-May-2019</CalibrationDate>
#       <ScaleFactor>189.000000</ScaleFactor>
#       <!-- Dark output -->
#       <DarkVoltage>0.071000</DarkVoltage>
#     </TurbidityMeter>
#   </sensor>
# </Sensors>
# datcnv_date = Jun 17 2019 17:05:35, 7.26.7.129 [datcnv_vars = 15]
# datcnv_in = C:\DATA\061719_FCR_0007.hex C:\DATA\SBE19plusV2_7809.xmlcon
# datcnv_skipover = 0
# datcnv_ox_hysteresis_correction = yes
# datcnv_ox_tau_correction = yes
# filter_date = Jun 17 2019 17:06:38, 7.26.7.129
# filter_in = C:\DATA\061719_FCR_0007.cnv
# filter_low_pass_tc_A = 0.030
# filter_low_pass_tc_B = 0.150
# filter_low_pass_A_vars = prdM prdE tv290C density00
# filter_low_pass_B_vars = depFM dz/dtM sbeox0Mg/L sbeox0PS specc c0uS/cm flECO-AFL ph orp par/sat/log turbWETntu0
# alignctd_date = Jun 17 2019 17:07:04, 7.26.7.129
# alignctd_in = C:\DATA\061719_FCR_0007.cnv
# alignctd_adv = dz/dtM 1.000, sbeox0Mg/L 1.000, sbeox0PS 1.000, specc 1.000, c0uS/cm 1.000, flECO-AFL 1.000, ph 1.000, orp 1.000, turbWETntu0 1.000                                                                                 
# file_type = ascii
*END*
     -0.556 1.2194e-11     8.8512     95.002      3.053   2.673490    -0.1320      7.062   662.4965 1.0027e+03    -0.4872     -0.545     -0.790    18.7336   998.4630 0.0000e+00
     -0.555 1.3413e-10     8.8498     95.008      3.031   2.654901    -0.1294      7.083   662.1500 1.0338e+03    -0.4658     -0.544     -0.789    18.7434   998.4611 0.0000e+00
     -0.555 1.4754e-09     8.8469     94.999      2.826   2.476231    -0.1276      7.087   662.8434 1.1068e+03    -0.5037     -0.545     -0.790    18.7567   998.4587 0.0000e+00
     -0.555 1.6230e-08     8.8431     94.989      2.610   2.287459    -0.1279      7.074   664.3410 1.1008e+03    -0.5531     -0.545     -0.790    18.7699   998.4562 0.0000e+00
     -0.555 1.7853e-07     8.8396     94.995      2.448   2.146714    -0.1329      7.055   666.1471 1.0363e+03    -0.5382     -0.545     -0.790    18.7823   998.4538 0.0000e+00
     -0.555 3.2731e-07     8.8361     95.004      2.327   2.041795    -0.1362      7.041   667.4725 9.9030e+02    -0.5203     -0.545     -0.790    18.7926   998.4518 0.0000e+00
     -0.555 1.7864e-07     8.8323     95.006      2.244   1.969360    -0.1331      7.026   667.9768 9.5622e+02    -0.5336     -0.545     -0.790    18.8020   998.4500 0.0000e+00
     -0.555 1.7511e-08     8.8283     94.999      2.169   1.904557    -0.1302      7.000   670.4369 9.2423e+02    -0.4692     -0.545     -0.790    18.8175   998.4470 0.0000e+00
     -0.555 1.5573e-08     8.8251     94.994      2.081   1.828544    -0.1282      6.974   676.3105 7.5206e+02    -0.3318     -0.545     -0.790    18.8418   998.4422 0.0000e+00
     -0.555 1.5521e-07     8.8241     95.006      1.988   1.747305    -0.1170      6.974   682.6381 4.4473e+02    -0.2492     -0.544     -0.789    18.8684   998.4371 0.0000e+00
     -0.555      0.000     8.8235     95.020      1.915   1.682663    -0.1066      7.006   684.3072 2.8261e+02    -0.2568     -0.545     -0.790    18.8902   998.4328 0.0000e+00
     -0.555      0.000     8.8217     95.018      1.840   1.617228    -0.0810      7.045   679.4554 2.9559e+02    -0.3910     -0.545     -0.790    18.9095   998.4290 0.0000e+00
     -0.555      0.000     8.8192     95.007      1.736   1.526405    -0.0335      7.061   664.0699 4.6238e+02    -0.5938     -0.545     -0.791    18.9230   998.4264 0.0000e+00
     -0.555      0.002     8.8152     94.991      1.672   1.471610    -0.0084      7.036   544.7443 8.2713e+02    -0.7098     -0.545     -0.790    18.9377   998.4235 0.0000e+00
     -0.555      0.010     8.8011     94.976      1.942   1.715068    -0.0292      7.033   328.2789 1.1642e+03    -0.7115     -0.545     -0.790    18.9436   998.4223 0.0000e+00
     -0.555      0.025     8.7363     94.961      3.359   3.012663    -0.2754      7.171   207.7678 1.2942e+03    -0.4180     -0.545     -0.790    18.9596   998.4193 0.0000e+00
     -0.555      0.042     8.5938     94.924      7.939   7.275473    -0.7140      7.404   197.1308 1.2277e+03     0.1195     -0.545     -0.791    18.9564   998.4199 0.0000e+00
     -0.548      0.057     8.4307     94.879     14.210  13.198531    -0.9456      7.614   214.4661 9.3493e+02     0.4129     -0.545     -0.789    18.9825   998.4146 0.0000e+00
     -0.524      0.067     8.3115     94.849     17.577  16.500551    -0.9515      7.787   248.3006 6.5245e+02     0.4089     -0.519     -0.754    18.9597   998.4194 0.0000e+00
     -0.489      0.075     8.2383     94.830     21.368  20.258618    -0.7508      7.949   269.6360 6.3704e+02     0.2020     -0.475     -0.689    19.1812   998.3761 0.0000e+00
     -0.462      0.080     8.1898     94.815     28.297  26.985488    -0.3654      8.087   273.4212 5.8116e+02    -0.1224     -0.448     -0.648    20.1834   998.1732 0.0000e+00
     -0.450      0.085     8.1528     94.800     32.750  31.357488    -0.1501      8.184   273.5039 3.6787e+02    -0.2689     -0.441     -0.640    21.3046   997.9372 0.0000e+00
     -0.440      0.091     8.1238     94.788     33.645  32.330424    -0.1238      8.258   274.5939 2.6186e+02    -0.1264     -0.435     -0.631    21.9772   997.7869 0.0000e+00
     -0.422      0.101     8.0993     94.772     33.748  32.530606    -0.1002      8.318   276.7052 2.7009e+02     1.7640     -0.417     -0.605    22.3799   997.6956 0.0000e+00
     -0.395      0.112     8.0745     94.753     33.685  32.572288     0.0744      8.353   278.7264 2.8918e+02    22.6204     -0.390     -0.566    22.6479   997.6370 0.0000e+00
     -0.359      0.122     8.0519     94.758     33.589  32.580704     0.3835      8.367   280.2750 2.9863e+02    60.7877     -0.355     -0.515    22.8768   997.5847 0.0000e+00
     -0.314      0.127     8.0374     94.803     33.494  32.569054     0.5422      8.373   280.0290 3.0303e+02    81.4449     -0.306     -0.445    23.0536   997.5428 0.0000e+00
     -0.274      0.125     8.0341     94.902     33.365  32.495013     0.5546      8.376   277.5585 3.0853e+02    81.4859     -0.263     -0.381    23.1842   997.5122 0.0000e+00
     -0.245      0.120     8.0402     95.043     33.224  32.383606     0.5762      8.378   275.0116 3.1045e+02    61.2514     -0.237     -0.344    23.3393   997.4750 0.0000e+00
     -0.223      0.112     8.0521     95.223     33.124  32.300876     0.6046      8.383   274.1858 3.0680e+02    23.9208     -0.219     -0.318    23.5072   997.4347 0.0000e+00
     -0.200      0.102     8.0702     95.454     33.072  32.256264     0.6207      8.388   274.6292 3.0225e+02     3.5638     -0.198     -0.287    23.6303   997.4049 0.0000e+00
     -0.173      0.093     8.0961     95.720     33.054  32.224965     0.6235      8.387   275.3825 2.9862e+02     1.7225     -0.171     -0.247    23.7068   997.3864 0.0000e+00
     -0.144      0.086     8.1276     96.002     33.038  32.176259     0.6290      8.382   275.9808 2.9606e+02     1.5928     -0.141     -0.205    23.7344   997.3797 0.0000e+00
     -0.119      0.077     8.1603     96.292     33.008  32.111519     0.6528      8.375   276.4423 2.9519e+02     1.6022     -0.113     -0.165    23.7523   997.3754 0.0000e+00
     -0.100      0.067     8.1902     96.566     33.001  32.076735     0.6773      8.369   276.9191 2.9384e+02     1.6063     -0.096     -0.139    23.7754   997.3698 0.0000e+00
     -0.089      0.055     8.2140     96.786     33.020  32.072933     0.6818      8.364   277.4443 2.9021e+02     1.5770     -0.086     -0.125    23.7524   997.3755 0.0000e+00
     -0.080      0.042     8.2308     96.946     33.027  32.065516     0.6727      8.360   277.9739 2.8349e+02     1.5425     -0.079     -0.114    23.6887   997.3912 0.0000e+00
     -0.070      0.031     8.2404     97.059     33.077  32.113960     0.6717      8.355   278.5042 2.7664e+02     1.5495     -0.069     -0.100    23.6307   997.4052 0.0000e+00
     -0.061      0.022     8.2445     97.125     33.174  32.214451     0.6784      8.351   278.8651 2.7283e+02     1.5639     -0.059     -0.086    23.5910   997.4149 0.0000e+00
     -0.056      0.014     8.2479     97.168     33.225  32.265227     0.6758      8.347   278.8966 2.7075e+02     1.5853     -0.054     -0.079    23.5558   997.4235 0.0000e+00
     -0.054      0.009     8.2708     97.429     33.247  32.283679     0.6661      8.342   278.9714 2.6916e+02     1.6115     -0.052     -0.076    23.5295   997.4299 0.0000e+00
     -0.056      0.006     8.3418     98.283     33.269  32.310624     0.6560      8.338   279.2536 2.6777e+02     1.6193     -0.055     -0.079    23.5334   997.4289 0.0000e+00
     -0.057      0.005     8.4416     99.508     33.279  32.337196     0.6578      8.335   279.6407 2.6659e+02     1.6138     -0.058     -0.084    23.5546   997.4238 0.0000e+00
     -0.057      0.005     8.4980    100.231     33.271  32.351148     0.6704      8.330   280.0382 2.6538e+02     1.6098     -0.056     -0.083    23.5544   997.4239 0.0000e+00
     -0.055      0.006     8.4780    100.052     33.251  32.352424     0.6696      8.326   280.1886 2.6367e+02     1.6033     -0.054     -0.078    23.5375   997.4279 0.0000e+00
     -0.051      0.006     8.4003     99.191     33.232  32.352651     0.6658      8.323   280.0822 2.6207e+02     1.5678     -0.050     -0.072    23.5470   997.4257 0.0000e+00
     -0.047      0.005     8.2757     97.766     33.215  32.353916     0.6848      8.319   279.9556 2.6088e+02     1.5413     -0.046     -0.066    23.5793   997.4179 0.0000e+00
     -0.046      0.004     8.1132     95.885     33.215  32.367747     0.7088      8.313   279.8622 2.5937e+02     1.5783     -0.045     -0.065    23.6119   997.4100 0.0000e+00
     -0.047      0.001     7.9329     93.783     33.230  32.392994     0.7224      8.307   279.8998 2.5716e+02     1.6227     -0.046     -0.067    23.6430   997.4025 0.0000e+00
     -0.048      0.000     7.7555     91.708     33.234  32.405351     0.7194      8.302   280.2377 2.5534e+02     1.5856     -0.047     -0.068    23.6727   997.3953 0.0000e+00
     -0.049      0.000     7.6011     89.892     33.214  32.390246     0.6978      8.298   280.5923 2.5449e+02     1.5231     -0.048     -0.070    23.6995   997.3887 0.0000e+00
     -0.049      0.002     7.4903     88.577     33.162  32.337287     0.6778      8.294   280.7455 2.5377e+02     1.5227     -0.049     -0.070    23.7209   997.3835 0.0000e+00
     -0.049      0.005     7.4252     87.788     33.103  32.272697     0.6686      8.289   280.8864 2.5243e+02     1.5478     -0.048     -0.069    23.7365   997.3797 0.0000e+00
     -0.048      0.009     7.3908     87.365     33.081  32.243862     0.6735      8.282   281.1766 2.4971e+02     1.5643     -0.048     -0.070    23.7494   997.3766 0.0000e+00
     -0.046      0.011     7.3763     87.187     33.082  32.242480     0.6849      8.275   281.4157 2.4508e+02     1.5918     -0.046     -0.067    23.7581   997.3744 0.0000e+00
     -0.041      0.011     7.3748     87.176     33.093  32.255982     0.6930      8.269   281.3684 2.3900e+02     1.6174     -0.041     -0.059    23.7543   997.3753 0.0000e+00
     -0.034      0.009     7.3802     87.251     33.113  32.280198     0.7027      8.263   281.2929 2.3564e+02     1.6123     -0.033     -0.048    23.7388   997.3791 0.0000e+00
     -0.029      0.006     7.3815     87.276     33.111  32.281443     0.7072      8.258   281.4493 2.7396e+02     1.5948     -0.026     -0.038    23.7261   997.3822 0.0000e+00
     -0.029      0.003     7.3723     87.168     33.100  32.271050     0.7035      8.254   281.7959 7.4856e+02     1.5701     -0.027     -0.039    23.7223   997.3831 0.0000e+00
     -0.033      0.001     7.3488     86.884     33.113  32.281445     0.7014      8.251   282.2143 1.6068e+03     1.5431     -0.033     -0.047    23.7276   997.3819 0.0000e+00
     -0.037     -0.001     7.3083     86.397     33.115  32.280206     0.7080      8.248   282.4648 1.9787e+03     1.5633     -0.037     -0.053    23.7376   997.3794 0.0000e+00
     -0.037     -0.002     7.2535     85.736     33.096  32.256072     0.7223      8.243   282.3289 1.5659e+03     1.6173     -0.037     -0.054    23.7434   997.3780 0.0000e+00
     -0.034     -0.003     7.1904     84.973     33.091  32.243476     0.7274      8.238   282.0335 8.3208e+02     1.6391     -0.033     -0.049    23.7433   997.3780 0.0000e+00
