* Sea-Bird SBE19plus  Data File:
* FileName = C:\DATA\06272019_fcr50_0001.hex
* Software version 2.8.0.119 SB_Terminal.dll
* Temperature SN = 7809
* Conductivity SN = 7809
* System UpLoad Time = Jun 27 2019 09:47:37
* <ApplicationData>
* <Seaterm232>
* <SoftwareVersion>2.8.0.119</SoftwareVersion>
* <BuildDate>07-Nov-2018</BuildDate>
* </Seaterm232>
* </ApplicationData>
* cast   1 27 Jun 2019 09:36:25 samples 1 to 1249, avg = 1, stop = mag switch
# nquan = 16
# nvalues = 979                         
# units = specified
# name 0 = depFM: Depth [fresh water, m]
# name 1 = dz/dtM: Descent Rate [m/s]
# name 2 = sbeox0Mg/L: Oxygen, SBE 43 [mg/l]
# name 3 = sbeox0PS: Oxygen, SBE 43 [% saturation]
# name 4 = specc: Specific Conductance [uS/cm]
# name 5 = c0uS/cm: Conductivity [uS/cm]
# name 6 = flECO-AFL: Fluorescence, WET Labs ECO-AFL/FL [mg/m^3]
# name 7 = ph: pH
# name 8 = orp: Oxidation Reduction Potential [mV]
# name 9 = par/sat/log: PAR/Logarithmic, Satlantic
# name 10 = turbWETntu0: Turbidity, WET Labs ECO [NTU]
# name 11 = prdM: Pressure, Strain Gauge [db]
# name 12 = prdE: Pressure, Strain Gauge [psi]
# name 13 = tv290C: Temperature [ITS-90, deg C]
# name 14 = density00: Density [density, kg/m^3]
# name 15 = flag:  0.000e+00
# span 0 =     -0.494,      9.732       
# span 1 =     -0.194,      0.201       
# span 2 =    -0.3507,    12.2832       
# span 3 =     -3.106,    141.515       
# span 4 =      1.135,    134.742       
# span 5 =   1.091709,  94.294217       
# span 6 =    -0.3115,     4.4836       
# span 7 =      6.480,      8.715       
# span 8 = -1240.7455,   974.7347       
# span 9 = 1.2356e-01, 1.5481e+03       
# span 10 =    -1.8662,    52.8912      
# span 11 =     -0.485,      9.544      
# span 12 =     -0.703,     13.842      
# span 13 =     9.9138,    25.5019      
# span 14 =   996.9342,   999.7992      
# span 15 = 0.0000e+00, 0.0000e+00      
# interval = seconds: 0.25
# start_time = Jun 27 2019 09:36:25 [Instrument's time stamp, header]
# bad_flag = -9.990e-29
# <Sensors count="9" >
#   <sensor Channel="1" >
#     <!-- Count, Temperature -->
#     <TemperatureSensor SensorID="58" >
#       <SerialNumber>7809</SerialNumber>
#       <CalibrationDate>24-Mar-19</CalibrationDate>
#       <A0>1.21792325e-003</A0>
#       <A1>2.81669265e-004</A1>
#       <A2>-1.60333336e-006</A2>
#       <A3>1.98414625e-007</A3>
#       <Slope>1.00000000</Slope>
#       <Offset>0.0000</Offset>
#     </TemperatureSensor>
#   </sensor>
#   <sensor Channel="2" >
#     <!-- Frequency 0, Conductivity -->
#     <ConductivitySensor SensorID="3" >
#       <SerialNumber>7809</SerialNumber>
#       <CalibrationDate>24-Mar-19</CalibrationDate>
#       <UseG_J>1</UseG_J>
#       <!-- Cell const and series R are applicable only for wide range sensors. -->
#       <SeriesR>0.0000</SeriesR>
#       <CellConst>2000.0000</CellConst>
#       <ConductivityType>0</ConductivityType>
#       <Coefficients equation="0" >
#         <A>0.00000000e+000</A>
#         <B>0.00000000e+000</B>
#         <C>0.00000000e+000</C>
#         <D>0.00000000e+000</D>
#         <M>0.0</M>
#         <CPcor>-9.57000000e-008</CPcor>
#       </Coefficients>
#       <Coefficients equation="1" >
#         <G>-1.00589325e+000</G>
#         <H>1.26816302e-001</H>
#         <I>-1.51560448e-004</I>
#         <J>2.67137274e-005</J>
#         <CPcor>-9.57000000e-008</CPcor>
#         <CTcor>3.2500e-006</CTcor>
#         <!-- WBOTC not applicable unless ConductivityType = 1. -->
#         <WBOTC>0.00000000e+000</WBOTC>
#       </Coefficients>
#       <Slope>1.00000000</Slope>
#       <Offset>0.00000</Offset>
#     </ConductivitySensor>
#   </sensor>
#   <sensor Channel="3" >
#     <!-- Count, Pressure, Strain Gauge -->
#     <PressureSensor SensorID="46" >
#       <SerialNumber>7809</SerialNumber>
#       <CalibrationDate>11-Mar-19</CalibrationDate>
#       <PA0>4.56561833e-002</PA0>
#       <PA1>4.85095118e-004</PA1>
#       <PA2>-2.88327090e-012</PA2>
#       <PTEMPA0>-5.48784562e+001</PTEMPA0>
#       <PTEMPA1>5.53756816e+001</PTEMPA1>
#       <PTEMPA2>-5.86727098e-001</PTEMPA2>
#       <PTCA0>5.25246745e+005</PTCA0>
#       <PTCA1>1.22304214e+001</PTCA1>
#       <PTCA2>-3.56745036e-001</PTCA2>
#       <PTCB0>2.51668750e+001</PTCB0>
#       <PTCB1>3.75000000e-004</PTCB1>
#       <PTCB2>0.00000000e+000</PTCB2>
#       <Offset>0.000000</Offset>
#     </PressureSensor>
#   </sensor>
#   <sensor Channel="4" >
#     <!-- A/D voltage 0, Oxygen, SBE 43 -->
#     <OxygenSensor SensorID="38" >
#       <SerialNumber>0434</SerialNumber>
#       <CalibrationDate>13-Apr-19</CalibrationDate>
#       <Use2007Equation>1</Use2007Equation>
#       <CalibrationCoefficients equation="0" >
#         <!-- Coefficients for Owens-Millard equation. -->
#         <Boc>0.0000</Boc>
#         <Soc>0.0000e+000</Soc>
#         <offset>0.0000</offset>
#         <Pcor>0.00e+000</Pcor>
#         <Tcor>0.0000</Tcor>
#         <Tau>0.0</Tau>
#       </CalibrationCoefficients>
#       <CalibrationCoefficients equation="1" >
#         <!-- Coefficients for Sea-Bird equation - SBE calibration in 2007 and later. -->
#         <Soc>4.2007e-001</Soc>
#         <offset>-0.6109</offset>
#         <A>-4.3656e-003</A>
#         <B> 1.7017e-004</B>
#         <C>-2.5341e-006</C>
#         <D0> 2.5826e+000</D0>
#         <D1> 1.92634e-004</D1>
#         <D2>-4.64803e-002</D2>
#         <E> 3.6000e-002</E>
#         <Tau20> 1.1800</Tau20>
#         <H1>-3.3000e-002</H1>
#         <H2> 5.0000e+003</H2>
#         <H3> 1.4500e+003</H3>
#       </CalibrationCoefficients>
#     </OxygenSensor>
#   </sensor>
#   <sensor Channel="5" >
#     <!-- A/D voltage 1, PAR/Logarithmic, Satlantic -->
#     <PARLog_SatlanticSensor SensorID="76" >
#       <SerialNumber>1122</SerialNumber>
#       <CalibrationDate>08-May-2019</CalibrationDate>
#       <a0>9.7456e-001</a0>
#       <a1>8.1640e-001</a1>
#       <Im>1.3589e+000</Im>
#       <Multiplier>1.0000e+000</Multiplier>
#     </PARLog_SatlanticSensor>
#   </sensor>
#   <sensor Channel="6" >
#     <!-- A/D voltage 2, pH -->
#     <pH_Sensor SensorID="43" >
#       <SerialNumber>0363</SerialNumber>
#       <CalibrationDate>15-Apr-19</CalibrationDate>
#       <Slope>4.5952</Slope>
#       <Offset>2.5370</Offset>
#     </pH_Sensor>
#   </sensor>
#   <sensor Channel="7" >
#     <!-- A/D voltage 3, Oxidation Reduction Potential -->
#     <OxidationReductionPotentialSensor SensorID="41" >
#       <SerialNumber>0363</SerialNumber>
#       <CalibrationDate>15-Apr-19</CalibrationDate>
#       <B>2.499480</B>
#       <M>-0.496195</M>
#       <Offset>0.0</Offset>
#     </OxidationReductionPotentialSensor>
#   </sensor>
#   <sensor Channel="8" >
#     <!-- A/D voltage 4, Fluorometer, WET Labs ECO-AFL/FL -->
#     <FluoroWetlabECO_AFL_FL_Sensor SensorID="20" >
#       <SerialNumber>FLNTURT-2496</SerialNumber>
#       <CalibrationDate>08-May-2019</CalibrationDate>
#       <ScaleFactor>5.00000000e+001</ScaleFactor>
#       <!-- Dark output -->
#       <Vblank>0.0550</Vblank>
#     </FluoroWetlabECO_AFL_FL_Sensor>
#   </sensor>
#   <sensor Channel="9" >
#     <!-- A/D voltage 5, Turbidity Meter, WET Labs, ECO-NTU -->
#     <TurbidityMeter SensorID="67" >
#       <SerialNumber>FLNTURT-2496</SerialNumber>
#       <CalibrationDate>08-May-2019</CalibrationDate>
#       <ScaleFactor>189.000000</ScaleFactor>
#       <!-- Dark output -->
#       <DarkVoltage>0.071000</DarkVoltage>
#     </TurbidityMeter>
#   </sensor>
# </Sensors>
# datcnv_date = Jun 27 2019 13:52:01, 7.26.7.129 [datcnv_vars = 15]
# datcnv_in = C:\DATA\062719_fcr50.hex C:\DATA\SBE19plusV2_7809.xmlcon
# datcnv_skipover = 0
# datcnv_ox_hysteresis_correction = yes
# datcnv_ox_tau_correction = yes
# filter_date = Jun 27 2019 13:52:20, 7.26.7.129
# filter_in = C:\DATA\062719_fcr50.cnv
# filter_low_pass_tc_A = 0.030
# filter_low_pass_tc_B = 0.150
# filter_low_pass_A_vars = prdM prdE tv290C density00
# filter_low_pass_B_vars = depFM dz/dtM sbeox0Mg/L sbeox0PS specc c0uS/cm flECO-AFL ph orp par/sat/log turbWETntu0
# alignctd_date = Jun 27 2019 13:52:37, 7.26.7.129
# alignctd_in = C:\DATA\062719_fcr50.cnv
# alignctd_adv = dz/dtM 1.000, sbeox0Mg/L 1.000, sbeox0PS 1.000, specc 1.000, c0uS/cm 1.000, flECO-AFL 1.000, ph 1.000, orp 1.000, turbWETntu0 1.000                                                                                 
# file_type = ascii
*END*
     -0.494 1.3995e-10     7.8384     91.543      1.135   1.091709    -0.1185      6.630 -1240.7416 1.5456e+02    -0.3021     -0.484     -0.703    23.0872   997.5256 0.0000e+00
     -0.493 1.5395e-09     7.8384     91.545      1.266   1.217386    -0.1234      6.634 -1240.7451 1.5331e+02    -0.3119     -0.484     -0.702    23.0887   997.5251 0.0000e+00
     -0.493 1.6934e-08     7.8382     91.544      1.412   1.357891    -0.1279      6.626 -1240.7455 1.5412e+02    -0.3266     -0.484     -0.702    23.0897   997.5249 0.0000e+00
     -0.493 1.8627e-07     7.8373     91.535      1.452   1.396626    -0.1372      6.620 -1240.7455 1.5627e+02    -0.7091     -0.483     -0.701    23.0910   997.5246 0.0000e+00
     -0.493 1.8627e-07     7.8365     91.526      1.489   1.432277    -0.1578      6.618 -1240.7455 1.5559e+02    -1.4626     -0.483     -0.701    23.0921   997.5243 0.0000e+00
     -0.493 1.6934e-08     7.8365     91.526      1.465   1.408776    -0.1688      6.617 -1240.7455 1.5645e+02    -1.8662     -0.484     -0.702    23.0930   997.5240 0.0000e+00
     -0.493 1.5395e-09     7.8371     91.533      1.420   1.365922    -0.1663      6.617 -1240.7455 1.6002e+02    -1.8528     -0.484     -0.702    23.0941   997.5238 0.0000e+00
     -0.493 1.3995e-10     7.8376     91.540      1.346   1.294311    -0.1189      6.617 -1240.7455 1.6810e+02    -1.3991     -0.485     -0.703    23.0948   997.5237 0.0000e+00
     -0.493 1.2723e-11     7.8379     91.545      1.289   1.239897    -0.0375      6.617 -1240.7455 1.7990e+02    -0.5760     -0.484     -0.702    23.0950   997.5236 0.0000e+00
     -0.493 1.1566e-12     7.8377     91.543      1.329   1.278267    -0.0070      6.618 -1240.7455 1.7854e+02    -0.1264     -0.484     -0.702    23.0950   997.5236 0.0000e+00
     -0.493 1.0515e-13     7.8376     91.543      1.367   1.314711    -0.0190      6.620 -1240.7455 1.9169e+02    -0.0265     -0.483     -0.701    23.0951   997.5236 0.0000e+00
     -0.493 9.5590e-15     7.8385     91.556      1.352   1.300372    -0.0946      6.625 -1240.7455 4.9752e+02     0.1400     -0.483     -0.701    23.0954   997.5235 0.0000e+00
     -0.494 8.6900e-16     7.8390     91.563      1.346   1.294976    -0.2364      6.631 -1240.7455 8.0427e+02     0.3470     -0.484     -0.702    23.0956   997.5235 0.0000e+00
     -0.494 7.9000e-17     7.8384     91.558      1.365   1.312832    -0.3115      6.635 -1240.7455 6.9138e+02     0.4116     -0.484     -0.702    23.0962   997.5233 0.0000e+00
     -0.493 7.1823e-18     7.8378     91.553      1.378   1.326180    -0.3005      6.631 -1240.7455 6.3703e+02     0.3638     -0.484     -0.702    23.0972   997.5231 0.0000e+00
     -0.493 6.5623e-19     7.8372     91.548      1.382   1.329650    -0.2175      6.620 -1240.7455 7.4820e+02    -0.0014     -0.484     -0.702    23.0980   997.5229 0.0000e+00
     -0.493 9.5971e-20     7.8369     91.546      1.408   1.354790    -0.0787      6.606 -1240.7455 9.4346e+02    -0.7273     -0.484     -0.702    23.0992   997.5226 0.0000e+00
     -0.493 4.0817e-19     7.8366     91.545      1.431   1.376698     0.0002      6.602 -1240.7455 1.2498e+03    -1.1371     -0.484     -0.702    23.1007   997.5223 0.0000e+00
     -0.493 4.4310e-18     7.8354     91.532      1.394   1.341091     0.0072      6.606 -1240.7455 1.4408e+03    -1.1550     -0.483     -0.701    23.1020   997.5220 0.0000e+00
     -0.493 4.8736e-17     7.8347     91.526      1.355   1.304436    -0.0021      6.609 -1240.7455 1.4858e+03    -1.1735     -0.484     -0.702    23.1029   997.5218 0.0000e+00
     -0.493 5.3609e-16     7.8352     91.533      1.365   1.313673    -0.0345      6.612 -1240.7455 1.4215e+03    -1.3273     -0.483     -0.701    23.1037   997.5215 0.0000e+00
     -0.493 5.8970e-15     7.8352     91.536      1.378   1.326053    -0.0813      6.616 -1240.7455 1.0545e+03    -1.5407     -0.483     -0.701    23.1047   997.5213 0.0000e+00
     -0.493 6.4867e-14     7.8345     91.531      1.379   1.327394    -0.1082      6.620 -1240.7455 4.6868e+02    -1.6554     -0.484     -0.702    23.1056   997.5211 0.0000e+00
     -0.493 7.1354e-13     7.8342     91.530      1.382   1.329886    -0.1167      6.624 -1240.7455 1.4906e+02    -1.6330     -0.483     -0.701    23.1070   997.5208 0.0000e+00
     -0.493 7.8489e-12     7.8335     91.523      1.409   1.356183    -0.1321      6.629 -1240.7455 9.6678e+01    -0.8766     -0.483     -0.701    23.1082   997.5205 0.0000e+00
     -0.493 8.6338e-11     7.8326     91.514      1.446   1.391906    -0.1641      6.642 -1240.7455 8.1269e+01     0.5426     -0.483     -0.701    23.1095   997.5202 0.0000e+00
     -0.493 9.4972e-10     7.8331     91.523      1.436   1.381641    -0.1922      6.655 -1240.7453 7.9349e+01     1.3026     -0.484     -0.702    23.1109   997.5198 0.0000e+00
     -0.493 1.0447e-08     7.8337     91.533      1.412   1.358794    -0.2025      6.655 -1240.7438 8.1898e+01     1.3977     -0.483     -0.701    23.1120   997.5196 0.0000e+00
     -0.493 1.1492e-07     7.8332     91.528      1.422   1.369105    -0.2023      6.650 -1240.7269 8.7941e+01     1.9549     -0.483     -0.701    23.1136   997.5192 0.0000e+00
     -0.493      0.000     7.8331     91.529      1.433   1.379593    -0.1988      6.648 -1240.5408 9.5542e+01     2.9609     -0.483     -0.701    23.1145   997.5191 0.0000e+00
     -0.493      0.000     7.8343     91.545      1.412   1.358886    -0.1944      6.630 -1238.4941 1.0179e+02     3.4990     -0.483     -0.701    23.1159   997.5186 0.0000e+00
     -0.493      0.000     7.8347     91.552      1.425   1.372182    -0.1750      6.596 -1215.9802 1.0743e+02     3.5452     -0.483     -0.701    23.1164   997.5185 0.0000e+00
     -0.493      0.002     7.8334     91.545      1.862   1.793802     0.0098      6.664  -968.3268 1.4003e+02     3.2573     -0.483     -0.701    23.1187   997.5179 0.0000e+00
     -0.493      0.009     7.8269     91.537      6.557   6.329924     0.3493      6.900  -178.9903 4.7275e+02     2.6734     -0.483     -0.701    23.1179   997.5182 0.0000e+00
     -0.493      0.024     7.7984     91.523     15.688  15.204893     0.5390      7.155   754.3862 1.0890e+03     2.3839     -0.484     -0.702    23.1220   997.5171 0.0000e+00
     -0.492      0.044     7.7412     91.507     24.534  23.966338     0.6044      7.341   974.7347 1.4306e+03     2.7066     -0.483     -0.701    23.1181   997.5184 0.0000e+00
     -0.487      0.068     7.6777     91.490     32.989  32.488575     1.1315      7.551   635.7259 1.2673e+03     6.5752     -0.483     -0.701    23.1276   997.5155 0.0000e+00
     -0.467      0.096     7.6281     91.469     38.546  38.174740     2.0916      7.836   424.4948 1.0735e+03    13.6658     -0.467     -0.677    23.1154   997.5193 0.0000e+00
     -0.427      0.128     7.5935     91.450     39.051  38.842718     2.6165      8.137   396.2183 1.2507e+03    17.5532     -0.419     -0.607    23.2471   997.4916 0.0000e+00
     -0.386      0.158     7.5697     91.451     37.846  37.773061     2.6651      8.385   384.9536 1.1929e+03    18.0191     -0.375     -0.543    23.7274   997.3772 0.0000e+00
     -0.349      0.183     7.5540     91.495     36.890  36.921796     2.6281      8.555   375.0219 8.3771e+02    18.6435     -0.349     -0.506    24.2109   997.2618 0.0000e+00
     -0.300      0.197     7.5460     91.591     36.306  36.421224     2.1691      8.654   367.0788 9.6504e+02    24.8733     -0.301     -0.437    24.5282   997.1847 0.0000e+00
     -0.238      0.201     7.5488     91.763     36.054  36.227362     1.3372      8.701   359.7241 1.3563e+03    36.3192     -0.233     -0.336    24.7549   997.1271 0.0000e+00
     -0.176      0.196     7.5641     92.033     36.144  36.355114     0.8834      8.715   355.0996 1.5184e+03    42.4626     -0.171     -0.247    24.9065   997.0883 0.0000e+00
     -0.121      0.186     7.5880     92.378     36.461  36.696494     0.8351      8.710   352.8083 1.5410e+03    42.0634     -0.115     -0.167    25.0471   997.0523 0.0000e+00
     -0.075      0.169     7.6168     92.764     36.802  37.054439     0.8146      8.691   349.4855 1.5481e+03    31.7550     -0.068     -0.099    25.1661   997.0218 0.0000e+00
     -0.040      0.150     7.6477     93.161     36.930  37.192015     0.7920      8.666   345.2960 1.5431e+03    12.7667     -0.036     -0.054    25.2465   997.0011 0.0000e+00
     -0.011      0.135     7.6793     93.557     36.887  37.153942     0.7780      8.631   342.0755 1.5391e+03     2.4257     -0.012     -0.019    25.2906   996.9898 0.0000e+00
      0.019      0.124     7.7110     93.946     36.834  37.101898     0.7753      8.582   339.1975 1.5389e+03     1.5327      0.018      0.026    25.3202   996.9824 0.0000e+00
      0.051      0.111     7.7405     94.299     36.679  36.943597     0.7766      8.538   335.9667 1.5096e+03     1.4447      0.050      0.074    25.3397   996.9776 0.0000e+00
      0.082      0.092     7.7653     94.592     36.314  36.572871     0.7673      8.518   332.7811 1.2571e+03     1.3941      0.078      0.115    25.3508   996.9749 0.0000e+00
      0.112      0.064     7.7821     94.787     35.859  36.110451     0.7588      8.509   330.1919 7.6956e+02     1.3801      0.112      0.162    25.3596   996.9727 0.0000e+00
      0.136      0.029     7.7928     94.905     35.552  35.795492     0.7612      8.495   328.5808 4.4696e+02     1.3740      0.142      0.206    25.3597   996.9728 0.0000e+00
      0.141     -0.006     7.8119     95.123     35.448  35.684353     0.7615      8.479   326.8957 5.3236e+02     1.3523      0.148      0.214    25.3548   996.9741 0.0000e+00
      0.124     -0.036     7.8436     95.504     35.420  35.655254     0.7617      8.462   324.7875 6.9601e+02     1.3470      0.125      0.181    25.3492   996.9753 0.0000e+00
      0.095     -0.055     7.8647     95.772     35.395  35.634069     0.7632      8.446   322.7935 5.7331e+02     1.3761      0.091      0.132    25.3450   996.9761 0.0000e+00
      0.068     -0.061     7.8529     95.649     35.371  35.618615     0.7632      8.431   320.5107 5.6143e+02     1.4095      0.063      0.091    25.3370   996.9780 0.0000e+00
      0.049     -0.054     7.8023     95.052     35.341  35.595342     0.7439      8.421   318.5240 8.8400e+02     1.4220      0.044      0.065    25.3249   996.9810 0.0000e+00
      0.039     -0.039     7.7116     93.964     35.282  35.543092     0.7037      8.411   316.5835 1.1419e+03     1.3963      0.036      0.051    25.3222   996.9816 0.0000e+00
      0.036     -0.023     7.5850     92.436     35.228  35.494627     0.6847      8.397   313.9111 1.2089e+03     1.3614      0.035      0.051    25.3297   996.9797 0.0000e+00
      0.036     -0.011     7.4375     90.649     35.183  35.453655     0.6965      8.383   312.1104 1.2077e+03     1.3607      0.035      0.050    25.3435   996.9761 0.0000e+00
      0.036     -0.004     7.2842     88.789     35.154  35.428516     0.7078      8.372   311.8475 1.2020e+03     1.3542      0.033      0.048    25.3548   996.9731 0.0000e+00
      0.037     -0.001     7.1374     87.004     35.168  35.444561     0.7080      8.362   311.8510 1.2020e+03     1.3484      0.038      0.054    25.3647   996.9706 0.0000e+00
      0.037     -0.000     7.0155     85.519     35.243  35.520708     0.7070      8.357   311.1203 1.2060e+03     1.3887      0.038      0.055    25.3741   996.9681 0.0000e+00
