* Sea-Bird SBE19plus  Data File:
* FileName = C:\DATA\081519_fcr50b_0004.hex
* Software version 2.8.0.119 SB_Terminal.dll
* Temperature SN = 7809
* Conductivity SN = 7809
* System UpLoad Time = Aug 15 2019 15:10:50
* <ApplicationData>
* <Seaterm232>
* <SoftwareVersion>2.8.0.119</SoftwareVersion>
* <BuildDate>07-Nov-2018</BuildDate>
* </Seaterm232>
* </ApplicationData>
* cast   4 15 Aug 2019 11:55:46 samples 4231 to 5301, avg = 1, stop = mag switch
# nquan = 16
# nvalues = 826                         
# units = specified
# name 0 = depFM: Depth [fresh water, m]
# name 1 = dz/dtM: Descent Rate [m/s]
# name 2 = sbeox0Mg/L: Oxygen, SBE 43 [mg/l]
# name 3 = sbeox0PS: Oxygen, SBE 43 [% saturation]
# name 4 = specc: Specific Conductance [uS/cm]
# name 5 = c0uS/cm: Conductivity [uS/cm]
# name 6 = flECO-AFL: Fluorescence, WET Labs ECO-AFL/FL [mg/m^3]
# name 7 = ph: pH
# name 8 = orp: Oxidation Reduction Potential [mV]
# name 9 = par/sat/log: PAR/Logarithmic, Satlantic
# name 10 = turbWETntu0: Turbidity, WET Labs ECO [NTU]
# name 11 = prdM: Pressure, Strain Gauge [db]
# name 12 = prdE: Pressure, Strain Gauge [psi]
# name 13 = tv290C: Temperature [ITS-90, deg C]
# name 14 = density00: Density [density, kg/m^3]
# name 15 = flag:  0.000e+00
# span 0 =     -0.591,      9.671       
# span 1 =     -0.270,      0.448       
# span 2 =     0.1831,    10.9651       
# span 3 =      1.854,    136.904       
# span 4 =      1.266,     68.022       
# span 5 =   1.326925,  52.880514       
# span 6 =    -0.1107,     7.4212       
# span 7 =      6.932,      9.480       
# span 8 =   234.3772,   409.7892       
# span 9 = 1.2347e-01, 3.8600e+02       
# span 10 =    -0.4974,    83.6420      
# span 11 =     -0.579,      9.485      
# span 12 =     -0.840,     13.756      
# span 13 =    11.8420,    27.4092      
# span 14 =   996.4085,   999.5814      
# span 15 = 0.0000e+00, 0.0000e+00      
# interval = seconds: 0.25
# start_time = Aug 15 2019 11:55:46 [Instrument's time stamp, header]
# bad_flag = -9.990e-29
# <Sensors count="9" >
#   <sensor Channel="1" >
#     <!-- Count, Temperature -->
#     <TemperatureSensor SensorID="58" >
#       <SerialNumber>7809</SerialNumber>
#       <CalibrationDate>24-Mar-19</CalibrationDate>
#       <A0>1.21792325e-003</A0>
#       <A1>2.81669265e-004</A1>
#       <A2>-1.60333336e-006</A2>
#       <A3>1.98414625e-007</A3>
#       <Slope>1.00000000</Slope>
#       <Offset>0.0000</Offset>
#     </TemperatureSensor>
#   </sensor>
#   <sensor Channel="2" >
#     <!-- Frequency 0, Conductivity -->
#     <ConductivitySensor SensorID="3" >
#       <SerialNumber>7809</SerialNumber>
#       <CalibrationDate>24-Mar-19</CalibrationDate>
#       <UseG_J>1</UseG_J>
#       <!-- Cell const and series R are applicable only for wide range sensors. -->
#       <SeriesR>0.0000</SeriesR>
#       <CellConst>2000.0000</CellConst>
#       <ConductivityType>0</ConductivityType>
#       <Coefficients equation="0" >
#         <A>0.00000000e+000</A>
#         <B>0.00000000e+000</B>
#         <C>0.00000000e+000</C>
#         <D>0.00000000e+000</D>
#         <M>0.0</M>
#         <CPcor>-9.57000000e-008</CPcor>
#       </Coefficients>
#       <Coefficients equation="1" >
#         <G>-1.00589325e+000</G>
#         <H>1.26816302e-001</H>
#         <I>-1.51560448e-004</I>
#         <J>2.67137274e-005</J>
#         <CPcor>-9.57000000e-008</CPcor>
#         <CTcor>3.2500e-006</CTcor>
#         <!-- WBOTC not applicable unless ConductivityType = 1. -->
#         <WBOTC>0.00000000e+000</WBOTC>
#       </Coefficients>
#       <Slope>1.00000000</Slope>
#       <Offset>0.00000</Offset>
#     </ConductivitySensor>
#   </sensor>
#   <sensor Channel="3" >
#     <!-- Count, Pressure, Strain Gauge -->
#     <PressureSensor SensorID="46" >
#       <SerialNumber>7809</SerialNumber>
#       <CalibrationDate>11-Mar-19</CalibrationDate>
#       <PA0>4.56561833e-002</PA0>
#       <PA1>4.85095118e-004</PA1>
#       <PA2>-2.88327090e-012</PA2>
#       <PTEMPA0>-5.48784562e+001</PTEMPA0>
#       <PTEMPA1>5.53756816e+001</PTEMPA1>
#       <PTEMPA2>-5.86727098e-001</PTEMPA2>
#       <PTCA0>5.25246745e+005</PTCA0>
#       <PTCA1>1.22304214e+001</PTCA1>
#       <PTCA2>-3.56745036e-001</PTCA2>
#       <PTCB0>2.51668750e+001</PTCB0>
#       <PTCB1>3.75000000e-004</PTCB1>
#       <PTCB2>0.00000000e+000</PTCB2>
#       <Offset>0.000000</Offset>
#     </PressureSensor>
#   </sensor>
#   <sensor Channel="4" >
#     <!-- A/D voltage 0, Oxygen, SBE 43 -->
#     <OxygenSensor SensorID="38" >
#       <SerialNumber>0434</SerialNumber>
#       <CalibrationDate>13-Apr-19</CalibrationDate>
#       <Use2007Equation>1</Use2007Equation>
#       <CalibrationCoefficients equation="0" >
#         <!-- Coefficients for Owens-Millard equation. -->
#         <Boc>0.0000</Boc>
#         <Soc>0.0000e+000</Soc>
#         <offset>0.0000</offset>
#         <Pcor>0.00e+000</Pcor>
#         <Tcor>0.0000</Tcor>
#         <Tau>0.0</Tau>
#       </CalibrationCoefficients>
#       <CalibrationCoefficients equation="1" >
#         <!-- Coefficients for Sea-Bird equation - SBE calibration in 2007 and later. -->
#         <Soc>4.2007e-001</Soc>
#         <offset>-0.6109</offset>
#         <A>-4.3656e-003</A>
#         <B> 1.7017e-004</B>
#         <C>-2.5341e-006</C>
#         <D0> 2.5826e+000</D0>
#         <D1> 1.92634e-004</D1>
#         <D2>-4.64803e-002</D2>
#         <E> 3.6000e-002</E>
#         <Tau20> 1.1800</Tau20>
#         <H1>-3.3000e-002</H1>
#         <H2> 5.0000e+003</H2>
#         <H3> 1.4500e+003</H3>
#       </CalibrationCoefficients>
#     </OxygenSensor>
#   </sensor>
#   <sensor Channel="5" >
#     <!-- A/D voltage 1, PAR/Logarithmic, Satlantic -->
#     <PARLog_SatlanticSensor SensorID="76" >
#       <SerialNumber>1122</SerialNumber>
#       <CalibrationDate>08-May-2019</CalibrationDate>
#       <a0>9.7456e-001</a0>
#       <a1>8.1640e-001</a1>
#       <Im>1.3589e+000</Im>
#       <Multiplier>1.0000e+000</Multiplier>
#     </PARLog_SatlanticSensor>
#   </sensor>
#   <sensor Channel="6" >
#     <!-- A/D voltage 2, pH -->
#     <pH_Sensor SensorID="43" >
#       <SerialNumber>0363</SerialNumber>
#       <CalibrationDate>15-Apr-19</CalibrationDate>
#       <Slope>4.5952</Slope>
#       <Offset>2.5370</Offset>
#     </pH_Sensor>
#   </sensor>
#   <sensor Channel="7" >
#     <!-- A/D voltage 3, Oxidation Reduction Potential -->
#     <OxidationReductionPotentialSensor SensorID="41" >
#       <SerialNumber>0363</SerialNumber>
#       <CalibrationDate>15-Apr-19</CalibrationDate>
#       <B>2.499480</B>
#       <M>-0.496195</M>
#       <Offset>0.0</Offset>
#     </OxidationReductionPotentialSensor>
#   </sensor>
#   <sensor Channel="8" >
#     <!-- A/D voltage 4, Fluorometer, WET Labs ECO-AFL/FL -->
#     <FluoroWetlabECO_AFL_FL_Sensor SensorID="20" >
#       <SerialNumber>FLNTURT-2496</SerialNumber>
#       <CalibrationDate>08-May-2019</CalibrationDate>
#       <ScaleFactor>5.00000000e+001</ScaleFactor>
#       <!-- Dark output -->
#       <Vblank>0.0550</Vblank>
#     </FluoroWetlabECO_AFL_FL_Sensor>
#   </sensor>
#   <sensor Channel="9" >
#     <!-- A/D voltage 5, Turbidity Meter, WET Labs, ECO-NTU -->
#     <TurbidityMeter SensorID="67" >
#       <SerialNumber>FLNTURT-2496</SerialNumber>
#       <CalibrationDate>08-May-2019</CalibrationDate>
#       <ScaleFactor>189.000000</ScaleFactor>
#       <!-- Dark output -->
#       <DarkVoltage>0.071000</DarkVoltage>
#     </TurbidityMeter>
#   </sensor>
# </Sensors>
# datcnv_date = Aug 15 2019 15:15:44, 7.26.7.129 [datcnv_vars = 15]
# datcnv_in = C:\DATA\081519_fcr50b_0004.hex C:\DATA\SBE19plusV2_7809.xmlcon
# datcnv_skipover = 0
# datcnv_ox_hysteresis_correction = yes
# datcnv_ox_tau_correction = yes
# filter_date = Aug 15 2019 15:17:19, 7.26.7.129
# filter_in = C:\DATA\081519_fcr50b_0004.cnv
# filter_low_pass_tc_A = 0.030
# filter_low_pass_tc_B = 0.150
# filter_low_pass_A_vars = prdM prdE tv290C density00
# filter_low_pass_B_vars = depFM dz/dtM sbeox0Mg/L sbeox0PS specc c0uS/cm flECO-AFL ph orp par/sat/log turbWETntu0
# alignctd_date = Aug 15 2019 15:17:57, 7.26.7.129
# alignctd_in = C:\DATA\081519_fcr50b_0004.cnv
# alignctd_adv = dz/dtM 1.000, sbeox0Mg/L 1.000, sbeox0PS 1.000, specc 1.000, c0uS/cm 1.000, flECO-AFL 1.000, ph 1.000, orp 1.000, turbWETntu0 1.000                                                                                 
# file_type = ascii
*END*
     -0.591 5.6109e-16     7.4342     93.983      1.266   1.326925    -0.1006      6.937   409.7892 3.7307e+02    -0.2598     -0.579     -0.840    27.4041   996.4100 0.0000e+00
     -0.591 6.1720e-15     7.4338     93.979      1.308   1.371320    -0.1024      6.936   405.7040 3.8238e+02    -0.2891     -0.579     -0.839    27.4046   996.4098 0.0000e+00
     -0.591 6.7892e-14     7.4338     93.979      1.370   1.436203    -0.1107      6.934   402.4778 3.8600e+02    -0.2795     -0.579     -0.840    27.4051   996.4097 0.0000e+00
     -0.591 1.4486e-13     7.4361     94.008      1.410   1.477811    -0.1067      6.934   398.9160 3.7508e+02    -0.2420     -0.579     -0.840    27.4056   996.4095 0.0000e+00
     -0.591 3.3489e-13     7.4376     94.028      1.426   1.494237    -0.0969      6.934   395.0745 3.5005e+02    -0.2623     -0.579     -0.839    27.4059   996.4094 0.0000e+00
     -0.591 2.9674e-12     7.4354     93.999      1.439   1.508082    -0.0967      6.934   391.3076 3.2075e+02    -0.2953     -0.579     -0.840    27.4060   996.4094 0.0000e+00
     -0.591 3.2576e-11     7.4324     93.962      1.449   1.518490    -0.1039      6.934   387.7859 2.9779e+02    -0.2799     -0.579     -0.840    27.4065   996.4093 0.0000e+00
     -0.591 3.5833e-10     7.4331     93.972      1.425   1.493355    -0.1059      6.934   384.6719 2.7926e+02    -0.3057     -0.579     -0.840    27.4069   996.4092 0.0000e+00
     -0.590 3.9417e-09     7.4364     94.014      1.390   1.457625    -0.1033      6.933   381.6201 2.6315e+02    -0.4105     -0.579     -0.840    27.4069   996.4092 0.0000e+00
     -0.590 4.3358e-08     7.4374     94.027      1.399   1.466643    -0.0983      6.933   378.5918 2.5994e+02    -0.4653     -0.579     -0.840    27.4071   996.4091 0.0000e+00
     -0.590 4.7694e-07     7.4364     94.014      1.408   1.475676    -0.0973      6.932   376.0194 2.7551e+02    -0.4438     -0.579     -0.840    27.4072   996.4091 0.0000e+00
     -0.590      0.000     7.4352     93.999      1.374   1.440113    -0.1004      6.932   373.6622 2.9351e+02    -0.4454     -0.578     -0.839    27.4074   996.4090 0.0000e+00
     -0.590      0.000     7.4332     93.975      1.351   1.416827    -0.1011      6.932   371.3432 2.9112e+02    -0.4850     -0.578     -0.839    27.4075   996.4090 0.0000e+00
     -0.590      0.001     7.4313     93.951      1.380   1.447564    -0.1057      6.933   369.2315 2.5590e+02    -0.4974     -0.578     -0.839    27.4078   996.4089 0.0000e+00
     -0.590      0.002     7.4303     93.939      1.849   1.938469    -0.1043      6.945   368.8658 1.9595e+02    -0.4629     -0.578     -0.839    27.4080   996.4089 0.0000e+00
     -0.590      0.012     7.4302     93.939      7.134   7.479039    -0.1011      7.082   380.8599 1.4627e+02    -0.3959     -0.578     -0.839    27.4082   996.4088 0.0000e+00
     -0.590      0.050     7.4317     93.954     20.114  21.083220    -0.1023      7.516   401.2824 1.3107e+02    -0.3111     -0.578     -0.839    27.4081   996.4088 0.0000e+00
     -0.589      0.124     7.4383     94.014     32.288  33.834475    -0.0923      8.158   407.2320 1.4422e+02    -0.0930     -0.578     -0.838    27.4085   996.4087 0.0000e+00
     -0.586      0.217     7.4627     94.244     36.685  38.409170    -0.0145      8.712   400.1407 1.7484e+02     1.8159     -0.577     -0.837    27.4087   996.4085 0.0000e+00
     -0.551      0.308     7.5229     94.848     37.032  38.704669     0.8384      9.069   391.9452 2.1864e+02    22.4745     -0.577     -0.838    27.4092   996.4087 0.0000e+00
     -0.432      0.390     7.6190     95.844     37.034  38.613312     2.4082      9.282   383.6828 2.6465e+02    60.3296     -0.456     -0.661    27.4089   996.4138 0.0000e+00
     -0.253      0.446     7.7354     97.091     37.084  38.573993     3.2639      9.398   376.1277 2.9261e+02    80.9672     -0.224     -0.325    27.4018   996.4214 0.0000e+00
     -0.101      0.448     7.8557     98.449     37.119  38.546508     3.3384      9.457   369.5134 2.6689e+02    82.6771     -0.084     -0.120    27.3626   996.4332 0.0000e+00
      0.016      0.381     7.9581     99.678     37.069  38.471321     3.3608      9.480   363.8520 1.9290e+02    81.1670      0.008      0.011    27.2652   996.4605 0.0000e+00
      0.131      0.262     8.0228    100.498     37.023  38.426610     3.4744      9.480   359.1276 1.3987e+02    63.1020      0.138      0.198    27.1270   996.4994 0.0000e+00
      0.211      0.136     8.0428    100.763     37.040  38.450273     3.6624      9.466   354.8089 1.3393e+02    29.9845      0.244      0.353    26.9865   996.5385 0.0000e+00
      0.208      0.041     8.0260    100.549     37.032  38.440049     3.7619      9.446   350.8688 1.6252e+02    11.8763      0.234      0.339    26.8927   996.5643 0.0000e+00
      0.138     -0.022     7.9871    100.052     36.965  38.366468     3.7679      9.426   347.4528 2.0332e+02    10.1488      0.128      0.187    26.8700   996.5700 0.0000e+00
      0.074     -0.058     7.9382     99.440     36.922  38.322330     3.7865      9.407   344.3079 2.1290e+02     9.2614      0.049      0.072    26.8904   996.5641 0.0000e+00
      0.057     -0.062     7.8884     98.831     36.943  38.350720     3.8213      9.391   341.2368 1.9485e+02     7.8326      0.045      0.066    26.9039   996.5604 0.0000e+00
      0.072     -0.038     7.8431     98.281     36.977  38.392350     3.8422      9.378   337.5083 1.8547e+02     7.0304      0.074      0.107    26.8955   996.5627 0.0000e+00
      0.085     -0.010     7.8009     97.759     37.024  38.444828     3.8487      9.367   333.4716 1.8593e+02     6.9035      0.087      0.128    26.8866   996.5652 0.0000e+00
      0.090      0.003     7.7656     97.311     37.118  38.540895     3.8392      9.354   330.5450 1.8878e+02     6.4948      0.088      0.129    26.8870   996.5651 0.0000e+00
      0.090     -0.002     7.7765     97.434     37.182  38.601721     3.8308      9.343   328.5365 1.9615e+02     5.7919      0.090      0.131    26.8990   996.5618 0.0000e+00
      0.083     -0.013     7.8628     98.499     37.196  38.608961     3.8342      9.334   326.7392 2.0352e+02     5.3859      0.085      0.123    26.9108   996.5586 0.0000e+00
      0.071     -0.020     7.9806     99.963     37.220  38.628424     3.8448      9.323   324.3017 2.0419e+02     5.2882      0.065      0.095    26.9137   996.5578 0.0000e+00
      0.066     -0.021     8.0768    101.161     37.240  38.646604     3.8724      9.308   321.1768 2.0502e+02     5.0043      0.063      0.091    26.9119   996.5583 0.0000e+00
      0.062     -0.020     8.1632    102.236     37.235  38.638332     3.9002      9.294   318.5534 2.0847e+02     4.5095      0.066      0.095    26.9037   996.5606 0.0000e+00
      0.055     -0.017     8.2726    103.603     37.192  38.591883     3.9118      9.284   316.6733 2.0523e+02     4.2550      0.051      0.072    26.8914   996.5638 0.0000e+00
      0.052     -0.014     8.4054    105.264     37.132  38.529341     3.9083      9.276   315.2223 2.0328e+02     4.2533      0.048      0.069    26.8843   996.5658 0.0000e+00
      0.053     -0.010     8.5468    107.033     37.120  38.516911     3.8930      9.269   313.7426 2.0609e+02     4.2596      0.056      0.081    26.8815   996.5666 0.0000e+00
      0.050     -0.002     8.6725    108.607     37.109  38.505072     3.8829      9.259   311.8611 2.0731e+02     4.2665      0.049      0.071    26.8781   996.5675 0.0000e+00
      0.044      0.008     8.7515    109.595     37.057  38.449674     3.8894      9.248   309.8526 2.1153e+02     4.2709      0.042      0.061    26.8753   996.5682 0.0000e+00
      0.042      0.015     8.7700    109.825     37.027  38.418400     3.9030      9.240   308.1283 2.1555e+02     4.2790      0.038      0.054    26.8748   996.5682 0.0000e+00
      0.050      0.019     8.7257    109.270     37.052  38.444328     3.9003      9.232   306.5867 2.1352e+02     4.2997      0.043      0.062    26.8751   996.5682 0.0000e+00
      0.066      0.022     8.6226    107.978     37.115  38.509253     3.8913      9.224   305.1511 2.1066e+02     4.2915      0.068      0.098    26.8741   996.5686 0.0000e+00
      0.077      0.023     8.4734    106.110     37.172  38.568623     3.8988      9.217   304.6227 2.0784e+02     4.2450      0.079      0.115    26.8741   996.5687 0.0000e+00
      0.079      0.020     8.2926    103.844     37.193  38.590865     3.9041      9.209   304.7585 2.0312e+02     4.2300      0.077      0.111    26.8732   996.5689 0.0000e+00
      0.080      0.014     8.0936    101.349     37.192  38.587742     3.9023      9.202   304.0398 1.9780e+02     4.2739      0.079      0.115    26.8720   996.5692 0.0000e+00
      0.081      0.009     7.8898     98.794     37.200  38.594339     3.9032      9.196   302.3859 1.9695e+02     4.3494      0.080      0.115    26.8723   996.5691 0.0000e+00
      0.082      0.006     7.7015     96.431     37.215  38.607151     3.8981      9.190   300.5925 2.0185e+02     4.4219      0.080      0.116    26.8726   996.5691 0.0000e+00
      0.084      0.006     7.5602     94.657     37.225  38.615694     3.8926      9.185   299.7359 2.0565e+02     4.4613      0.082      0.120    26.8724   996.5692 0.0000e+00
      0.086      0.006     7.4957     93.847     37.244  38.634147     3.8968      9.179   299.7717 2.0593e+02     4.4978      0.084      0.122    26.8708   996.5696 0.0000e+00
      0.088      0.005     7.5166     94.106     37.250  38.639826     3.9059      9.174   299.2187 2.0504e+02     4.5042      0.086      0.125    26.8679   996.5704 0.0000e+00
      0.090      0.004     7.6081     95.249     37.233  38.620877     3.9069      9.170   298.0404 2.0469e+02     4.4397      0.089      0.129    26.8648   996.5713 0.0000e+00
      0.092      0.002     7.7448     96.957     37.210  38.595476     3.9001      9.168   296.5386 2.0491e+02     4.4070      0.090      0.131    26.8622   996.5720 0.0000e+00
      0.092      0.001     7.9039     98.947     37.202  38.586621     3.9016      9.165   294.8262 2.0624e+02     4.4355      0.090      0.131    26.8600   996.5726 0.0000e+00
      0.091      0.000     8.0671    100.989     37.194  38.577279     3.9086      9.162   293.7691 2.0865e+02     4.4569      0.089      0.130    26.8585   996.5730 0.0000e+00
      0.090     -0.001     8.2166    102.859     37.164  38.546003     3.9061      9.158   293.2224 2.0950e+02     4.4699      0.087      0.126    26.8577   996.5732 0.0000e+00
      0.090     -0.001     8.3393    104.394     37.145  38.525853     3.8978      9.154   292.4309 2.0867e+02     4.4614      0.088      0.127    26.8563   996.5736 0.0000e+00
      0.090     -0.001     8.4266    105.484     37.145  38.524082     3.8952      9.149   291.4268 2.0822e+02     4.4522      0.089      0.129    26.8543   996.5741 0.0000e+00
      0.090     -0.001     8.4746    106.079     37.146  38.524592     3.9087      9.145   290.4599 2.0817e+02     4.5218      0.088      0.128    26.8537   996.5743 0.0000e+00
      0.090      0.000     8.4906    106.277     37.154  38.532007     3.9398      9.142   289.1722 2.0831e+02     4.6482      0.089      0.129    26.8533   996.5744 0.0000e+00
