* Sea-Bird SBE19plus  Data File:
* FileName = C:\DATA\081919_fcr_0004.hex
* Software version 2.8.0.119 SB_Terminal.dll
* Temperature SN = 7809
* Conductivity SN = 7809
* System UpLoad Time = Aug 20 2019 10:49:01
* <ApplicationData>
* <Seaterm232>
* <SoftwareVersion>2.8.0.119</SoftwareVersion>
* <BuildDate>07-Nov-2018</BuildDate>
* </Seaterm232>
* </ApplicationData>
* cast   4 19 Aug 2019 11:33:21 samples 1648 to 2244, avg = 1, stop = mag switch
# nquan = 16
# nvalues = 537                         
# units = specified
# name 0 = depFM: Depth [fresh water, m]
# name 1 = dz/dtM: Descent Rate [m/s]
# name 2 = sbeox0Mg/L: Oxygen, SBE 43 [mg/l]
# name 3 = sbeox0PS: Oxygen, SBE 43 [% saturation]
# name 4 = specc: Specific Conductance [uS/cm]
# name 5 = c0uS/cm: Conductivity [uS/cm]
# name 6 = flECO-AFL: Fluorescence, WET Labs ECO-AFL/FL [mg/m^3]
# name 7 = ph: pH
# name 8 = orp: Oxidation Reduction Potential [mV]
# name 9 = par/sat/log: PAR/Logarithmic, Satlantic
# name 10 = turbWETntu0: Turbidity, WET Labs ECO [NTU]
# name 11 = prdM: Pressure, Strain Gauge [db]
# name 12 = prdE: Pressure, Strain Gauge [psi]
# name 13 = tv290C: Temperature [ITS-90, deg C]
# name 14 = density00: Density [density, kg/m^3]
# name 15 = flag:  0.000e+00
# span 0 =     -0.563,      3.189       
# span 1 =     -0.008,      0.110       
# span 2 =     0.0649,    11.6345       
# span 3 =      0.759,    146.476       
# span 4 =      1.370,     89.317       
# span 5 =   1.415311,  78.506989       
# span 6 =    -2.0216,   243.5239       
# span 7 =      7.527,      9.208       
# span 8 =   -22.3892,   440.9706       
# span 9 = 7.3253e+00, 2.6119e+03       
# span 10 =    -4.8949,   893.8386      
# span 11 =     -0.553,      3.128      
# span 12 =     -0.801,      4.537      
# span 13 =    18.9264,    28.2540      
# span 14 =   996.1812,   998.4699      
# span 15 = 0.0000e+00, 0.0000e+00      
# interval = seconds: 0.25
# start_time = Aug 19 2019 11:33:21 [Instrument's time stamp, header]
# bad_flag = -9.990e-29
# <Sensors count="9" >
#   <sensor Channel="1" >
#     <!-- Count, Temperature -->
#     <TemperatureSensor SensorID="58" >
#       <SerialNumber>7809</SerialNumber>
#       <CalibrationDate>24-Mar-19</CalibrationDate>
#       <A0>1.21792325e-003</A0>
#       <A1>2.81669265e-004</A1>
#       <A2>-1.60333336e-006</A2>
#       <A3>1.98414625e-007</A3>
#       <Slope>1.00000000</Slope>
#       <Offset>0.0000</Offset>
#     </TemperatureSensor>
#   </sensor>
#   <sensor Channel="2" >
#     <!-- Frequency 0, Conductivity -->
#     <ConductivitySensor SensorID="3" >
#       <SerialNumber>7809</SerialNumber>
#       <CalibrationDate>24-Mar-19</CalibrationDate>
#       <UseG_J>1</UseG_J>
#       <!-- Cell const and series R are applicable only for wide range sensors. -->
#       <SeriesR>0.0000</SeriesR>
#       <CellConst>2000.0000</CellConst>
#       <ConductivityType>0</ConductivityType>
#       <Coefficients equation="0" >
#         <A>0.00000000e+000</A>
#         <B>0.00000000e+000</B>
#         <C>0.00000000e+000</C>
#         <D>0.00000000e+000</D>
#         <M>0.0</M>
#         <CPcor>-9.57000000e-008</CPcor>
#       </Coefficients>
#       <Coefficients equation="1" >
#         <G>-1.00589325e+000</G>
#         <H>1.26816302e-001</H>
#         <I>-1.51560448e-004</I>
#         <J>2.67137274e-005</J>
#         <CPcor>-9.57000000e-008</CPcor>
#         <CTcor>3.2500e-006</CTcor>
#         <!-- WBOTC not applicable unless ConductivityType = 1. -->
#         <WBOTC>0.00000000e+000</WBOTC>
#       </Coefficients>
#       <Slope>1.00000000</Slope>
#       <Offset>0.00000</Offset>
#     </ConductivitySensor>
#   </sensor>
#   <sensor Channel="3" >
#     <!-- Count, Pressure, Strain Gauge -->
#     <PressureSensor SensorID="46" >
#       <SerialNumber>7809</SerialNumber>
#       <CalibrationDate>11-Mar-19</CalibrationDate>
#       <PA0>4.56561833e-002</PA0>
#       <PA1>4.85095118e-004</PA1>
#       <PA2>-2.88327090e-012</PA2>
#       <PTEMPA0>-5.48784562e+001</PTEMPA0>
#       <PTEMPA1>5.53756816e+001</PTEMPA1>
#       <PTEMPA2>-5.86727098e-001</PTEMPA2>
#       <PTCA0>5.25246745e+005</PTCA0>
#       <PTCA1>1.22304214e+001</PTCA1>
#       <PTCA2>-3.56745036e-001</PTCA2>
#       <PTCB0>2.51668750e+001</PTCB0>
#       <PTCB1>3.75000000e-004</PTCB1>
#       <PTCB2>0.00000000e+000</PTCB2>
#       <Offset>0.000000</Offset>
#     </PressureSensor>
#   </sensor>
#   <sensor Channel="4" >
#     <!-- A/D voltage 0, Oxygen, SBE 43 -->
#     <OxygenSensor SensorID="38" >
#       <SerialNumber>0434</SerialNumber>
#       <CalibrationDate>13-Apr-19</CalibrationDate>
#       <Use2007Equation>1</Use2007Equation>
#       <CalibrationCoefficients equation="0" >
#         <!-- Coefficients for Owens-Millard equation. -->
#         <Boc>0.0000</Boc>
#         <Soc>0.0000e+000</Soc>
#         <offset>0.0000</offset>
#         <Pcor>0.00e+000</Pcor>
#         <Tcor>0.0000</Tcor>
#         <Tau>0.0</Tau>
#       </CalibrationCoefficients>
#       <CalibrationCoefficients equation="1" >
#         <!-- Coefficients for Sea-Bird equation - SBE calibration in 2007 and later. -->
#         <Soc>4.2007e-001</Soc>
#         <offset>-0.6109</offset>
#         <A>-4.3656e-003</A>
#         <B> 1.7017e-004</B>
#         <C>-2.5341e-006</C>
#         <D0> 2.5826e+000</D0>
#         <D1> 1.92634e-004</D1>
#         <D2>-4.64803e-002</D2>
#         <E> 3.6000e-002</E>
#         <Tau20> 1.1800</Tau20>
#         <H1>-3.3000e-002</H1>
#         <H2> 5.0000e+003</H2>
#         <H3> 1.4500e+003</H3>
#       </CalibrationCoefficients>
#     </OxygenSensor>
#   </sensor>
#   <sensor Channel="5" >
#     <!-- A/D voltage 1, PAR/Logarithmic, Satlantic -->
#     <PARLog_SatlanticSensor SensorID="76" >
#       <SerialNumber>1122</SerialNumber>
#       <CalibrationDate>08-May-2019</CalibrationDate>
#       <a0>9.7456e-001</a0>
#       <a1>8.1640e-001</a1>
#       <Im>1.3589e+000</Im>
#       <Multiplier>1.0000e+000</Multiplier>
#     </PARLog_SatlanticSensor>
#   </sensor>
#   <sensor Channel="6" >
#     <!-- A/D voltage 2, pH -->
#     <pH_Sensor SensorID="43" >
#       <SerialNumber>0363</SerialNumber>
#       <CalibrationDate>15-Apr-19</CalibrationDate>
#       <Slope>4.5952</Slope>
#       <Offset>2.5370</Offset>
#     </pH_Sensor>
#   </sensor>
#   <sensor Channel="7" >
#     <!-- A/D voltage 3, Oxidation Reduction Potential -->
#     <OxidationReductionPotentialSensor SensorID="41" >
#       <SerialNumber>0363</SerialNumber>
#       <CalibrationDate>15-Apr-19</CalibrationDate>
#       <B>2.499480</B>
#       <M>-0.496195</M>
#       <Offset>0.0</Offset>
#     </OxidationReductionPotentialSensor>
#   </sensor>
#   <sensor Channel="8" >
#     <!-- A/D voltage 4, Fluorometer, WET Labs ECO-AFL/FL -->
#     <FluoroWetlabECO_AFL_FL_Sensor SensorID="20" >
#       <SerialNumber>FLNTURT-2496</SerialNumber>
#       <CalibrationDate>08-May-2019</CalibrationDate>
#       <ScaleFactor>5.00000000e+001</ScaleFactor>
#       <!-- Dark output -->
#       <Vblank>0.0550</Vblank>
#     </FluoroWetlabECO_AFL_FL_Sensor>
#   </sensor>
#   <sensor Channel="9" >
#     <!-- A/D voltage 5, Turbidity Meter, WET Labs, ECO-NTU -->
#     <TurbidityMeter SensorID="67" >
#       <SerialNumber>FLNTURT-2496</SerialNumber>
#       <CalibrationDate>08-May-2019</CalibrationDate>
#       <ScaleFactor>189.000000</ScaleFactor>
#       <!-- Dark output -->
#       <DarkVoltage>0.071000</DarkVoltage>
#     </TurbidityMeter>
#   </sensor>
# </Sensors>
# datcnv_date = Aug 20 2019 10:51:56, 7.26.7.129 [datcnv_vars = 15]
# datcnv_in = C:\DATA\081919_fcr20.hex C:\DATA\SBE19plusV2_7809.xmlcon
# datcnv_skipover = 0
# datcnv_ox_hysteresis_correction = yes
# datcnv_ox_tau_correction = yes
# filter_date = Aug 20 2019 10:52:12, 7.26.7.129
# filter_in = C:\DATA\081919_fcr20.cnv
# filter_low_pass_tc_A = 0.030
# filter_low_pass_tc_B = 0.150
# filter_low_pass_A_vars = prdM prdE tv290C density00
# filter_low_pass_B_vars = depFM dz/dtM sbeox0Mg/L sbeox0PS specc c0uS/cm flECO-AFL ph orp par/sat/log turbWETntu0
# alignctd_date = Aug 20 2019 10:52:30, 7.26.7.129
# alignctd_in = C:\DATA\081919_fcr20.cnv
# alignctd_adv = dz/dtM 1.000, sbeox0Mg/L 1.000, sbeox0PS 1.000, specc 1.000, c0uS/cm 1.000, flECO-AFL 1.000, ph 1.000, orp 1.000, turbWETntu0 1.000                                                                                 
# file_type = ascii
*END*
     -0.559 2.1479e-64     7.6544     95.544      1.579   1.632949    -0.0975      7.555   440.9706 2.1860e+03    -0.5280     -0.548     -0.795    26.6904   996.6066 0.0000e+00
     -0.559 2.3627e-63     7.6545     95.546      1.553   1.606285    -0.0915      7.553   437.4911 2.1712e+03    -0.5229     -0.548     -0.794    26.6918   996.6061 0.0000e+00
     -0.559 2.5990e-62     7.6539     95.541      1.529   1.581850    -0.0975      7.553   434.4939 2.1533e+03    -0.5065     -0.548     -0.795    26.6932   996.6058 0.0000e+00
     -0.559 2.8589e-61     7.6533     95.534      1.538   1.590950    -0.1092      7.554   431.8343 2.1455e+03    -0.3956     -0.548     -0.795    26.6948   996.6053 0.0000e+00
     -0.559 3.1448e-60     7.6532     95.533      1.537   1.589587    -0.1118      7.555   429.0806 2.1526e+03    -0.2959     -0.548     -0.795    26.6962   996.6050 0.0000e+00
     -0.559 3.4593e-59     7.6532     95.533      1.514   1.565375    -0.1113      7.555   426.2366 2.1661e+03    -0.2841     -0.548     -0.794    26.6970   996.6047 0.0000e+00
     -0.559 3.8052e-58     7.6526     95.525      1.500   1.551654    -0.1124      7.556   423.5167 2.1713e+03    -0.2863     -0.548     -0.795    26.6976   996.6045 0.0000e+00
     -0.559 4.1857e-57     7.6514     95.510      1.499   1.550406    -0.1083      7.556   420.9742 2.1702e+03    -0.2565     -0.548     -0.795    26.6977   996.6046 0.0000e+00
     -0.559 4.6043e-56     7.6511     95.506      1.499   1.550284    -0.1045      7.557   418.6406 2.1717e+03    -0.2517     -0.549     -0.796    26.6977   996.6045 0.0000e+00
     -0.559 5.0647e-55     7.6520     95.518      1.499   1.550178    -0.1006      7.557   416.8113 2.1767e+03    -0.2938     -0.548     -0.795    26.6979   996.6045 0.0000e+00
     -0.559 5.5712e-54     7.6520     95.518      1.498   1.549127    -0.0955      7.556   415.4622 2.1829e+03    -0.3064     -0.548     -0.795    26.6982   996.6044 0.0000e+00
     -0.559 6.1283e-53     7.6510     95.504      1.486   1.537576    -0.0956      7.556   414.3738 2.1849e+03    -0.3056     -0.548     -0.795    26.6983   996.6044 0.0000e+00
     -0.559 6.7411e-52     7.6516     95.508      1.486   1.537243    -0.1023      7.559   413.8041 2.1799e+03    -0.3168     -0.548     -0.795    26.6983   996.6043 0.0000e+00
     -0.559 7.4153e-51     7.6535     95.528      1.494   1.545099    -0.1064      7.565   413.6501 2.1664e+03    -0.3114     -0.548     -0.795    26.6984   996.6044 0.0000e+00
     -0.559 8.1568e-50     7.6545     95.538      1.456   1.505837    -0.1027      7.570   413.2003 2.1317e+03    -0.3063     -0.548     -0.795    26.6983   996.6043 0.0000e+00
     -0.559 8.9725e-49     7.6545     95.538      1.396   1.442699    -0.1003      7.572   412.4100 1.9332e+03    -0.3523     -0.548     -0.795    26.6976   996.6046 0.0000e+00
     -0.559 9.8697e-48     7.6544     95.534      1.370   1.415311    -0.1041      7.576   411.4934 1.8172e+03    -0.4428     -0.548     -0.795    26.6951   996.6052 0.0000e+00
     -0.560 1.0857e-46     7.6549     95.535      1.382   1.428133    -0.1136      7.582   409.8614 2.1185e+03    -0.4830     -0.549     -0.796    26.6924   996.6060 0.0000e+00
     -0.560 1.1942e-45     7.6556     95.540      1.423   1.471015    -0.1199      7.586   408.0788 2.4130e+03    -0.4772     -0.549     -0.796    26.6919   996.6061 0.0000e+00
     -0.560 1.3137e-44     7.6558     95.540      1.503   1.553627    -0.1103      7.587   407.8358 2.4918e+03    -0.4385     -0.548     -0.795    26.6918   996.6062 0.0000e+00
     -0.560 1.4450e-43     7.6550     95.527      1.613   1.666650    -0.1021      7.587   408.8158 2.5385e+03    -0.3429     -0.549     -0.796    26.6905   996.6065 0.0000e+00
     -0.560 1.5895e-42     7.6543     95.516      1.703   1.760411    -0.1072      7.584   409.5175 2.5711e+03    -0.2719     -0.549     -0.796    26.6884   996.6071 0.0000e+00
     -0.560 1.7485e-41     7.6548     95.521      1.741   1.800229    -0.1113      7.584   409.5235 2.5948e+03    -0.2682     -0.549     -0.796    26.6854   996.6079 0.0000e+00
     -0.560 1.9233e-40     7.6553     95.525      1.771   1.831269    -0.1085      7.588   409.5770 2.6074e+03    -0.2649     -0.548     -0.795    26.6830   996.6086 0.0000e+00
     -0.560 2.1157e-39     7.6558     95.531      1.821   1.882273    -0.0988      7.590   409.9060 2.6119e+03    -0.2968     -0.549     -0.796    26.6818   996.6089 0.0000e+00
     -0.560 2.3272e-38     7.6568     95.542      1.848   1.910011    -0.0898      7.588   409.9736 2.6096e+03    -0.3926     -0.548     -0.795    26.6811   996.6091 0.0000e+00
     -0.560 2.5599e-37     7.6570     95.543      1.851   1.913201    -0.0868      7.584   410.1356 2.5909e+03    -0.4726     -0.549     -0.796    26.6797   996.6095 0.0000e+00
     -0.560 2.8159e-36     7.6573     95.544      1.858   1.920846    -0.0879      7.580   410.9190 2.5514e+03    -0.5099     -0.549     -0.796    26.6784   996.6098 0.0000e+00
     -0.560 3.0975e-35     7.6580     95.550      1.876   1.939080    -0.0948      7.577   413.0782 2.5066e+03    -0.5167     -0.549     -0.796    26.6776   996.6100 0.0000e+00
     -0.560 3.4073e-34     7.6574     95.541      1.881   1.943575    -0.0998      7.567   417.4005 2.4671e+03    -0.5217     -0.549     -0.796    26.6774   996.6101 0.0000e+00
     -0.560 3.7480e-33     7.6566     95.532      1.850   1.911843    -0.0970      7.552   422.3106 2.3850e+03    -0.5051     -0.549     -0.796    26.6769   996.6102 0.0000e+00
     -0.560 4.1228e-32     7.6571     95.539      1.812   1.872220    -0.1037      7.539   425.5539 1.8427e+03    -0.4791     -0.549     -0.796    26.6750   996.6107 0.0000e+00
     -0.560 4.5351e-31     7.6567     95.536      1.785   1.844666    -0.1293      7.533   426.7589 8.9560e+02    -0.5028     -0.549     -0.797    26.6727   996.6114 0.0000e+00
     -0.560 4.9886e-30     7.6549     95.512      1.773   1.832132    -0.1543      7.530   425.0077 3.7146e+02    -0.5283     -0.549     -0.796    26.6722   996.6115 0.0000e+00
     -0.560 5.4875e-29     7.6542     95.499      1.788   1.847405    -0.1639      7.528   403.9492 3.4972e+02    -0.4935     -0.549     -0.796    26.6730   996.6113 0.0000e+00
     -0.560 6.0362e-28     7.6559     95.511      1.841   1.902602    -0.1505      7.527   385.4347 4.6631e+02    -0.4099     -0.549     -0.797    26.6744   996.6109 0.0000e+00
     -0.560 6.6398e-27     7.6587     95.536      1.928   1.992612    -0.0011      7.528   405.7509 5.7367e+02     0.2532     -0.549     -0.796    26.6750   996.6107 0.0000e+00
     -0.560 7.3038e-26     7.6605     95.550      1.982   2.048632     0.2732      7.528   426.4909 6.0259e+02     1.5271     -0.548     -0.795    26.6744   996.6109 0.0000e+00
     -0.560 8.0342e-25     7.6603     95.540      2.006   2.073035     0.4258      7.530   425.9206 6.4127e+02     2.2439     -0.549     -0.796    26.6720   996.6116 0.0000e+00
     -0.560 8.8376e-24     7.6601     95.530      2.091   2.160941     0.4398      7.533   422.1722 6.8778e+02     2.2671     -0.549     -0.796    26.6663   996.6131 0.0000e+00
     -0.560 9.7214e-23     7.6612     95.539      2.215   2.287774     0.4252      7.536   418.3385 6.8664e+02     2.2005     -0.549     -0.796    26.6603   996.6148 0.0000e+00
     -0.560 1.0694e-21     7.6619     95.544      2.265   2.339295     0.2838      7.540   415.7898 6.7883e+02     1.7988     -0.549     -0.796    26.6552   996.6162 0.0000e+00
     -0.560 1.1763e-20     7.6620     95.546      2.205   2.276965     0.0391      7.547   414.4149 6.7717e+02     1.0815     -0.548     -0.795    26.6507   996.6173 0.0000e+00
     -0.560 1.2939e-19     7.6615     95.542      2.099   2.167794    -0.0889      7.553   413.4159 6.5153e+02     0.7380     -0.549     -0.796    26.6467   996.6185 0.0000e+00
     -0.559 1.4233e-18     7.6605     95.535      2.029   2.096489    -0.0755      7.553   412.8314 6.2677e+02     0.9546     -0.548     -0.795    26.6431   996.6195 0.0000e+00
     -0.559 1.5656e-17     7.6605     95.538      1.982   2.048459     0.2702      7.549   412.8545 5.9873e+02     3.4719     -0.548     -0.795    26.6411   996.6200 0.0000e+00
     -0.559 1.7222e-16     7.6618     95.557      1.904   1.967237     0.9008      7.548   413.2654 5.2978e+02     8.0699     -0.548     -0.795    26.6411   996.6200 0.0000e+00
     -0.559 1.8944e-15     7.6631     95.574      1.814   1.874797     1.2200      7.551   413.9272 4.1939e+02    10.5362     -0.548     -0.795    26.6434   996.6193 0.0000e+00
     -0.559 2.0839e-14     7.6615     95.554      1.759   1.817849     1.1827      7.552   414.8340 3.0895e+02    10.4167     -0.548     -0.795    26.6466   996.6185 0.0000e+00
     -0.559 2.2923e-13     7.6593     95.526      1.728   1.785588     0.4667      7.551   415.9696 2.4923e+02     6.4938     -0.548     -0.795    26.6488   996.6179 0.0000e+00
     -0.559 2.5215e-12     7.6592     95.525      1.682   1.738173    -0.8836      7.548   417.0742 2.3064e+02    -0.7799     -0.549     -0.796    26.6499   996.6176 0.0000e+00
     -0.559 2.7736e-11     7.6595     95.529      1.634   1.688089    -1.6271      7.544   417.9513 2.2682e+02    -4.7092     -0.548     -0.795    26.6499   996.6176 0.0000e+00
     -0.559 3.0510e-10     7.6585     95.514      1.633   1.686934    -1.6559      7.542   418.7450 2.3459e+02    -4.8019     -0.548     -0.795    26.6501   996.6175 0.0000e+00
     -0.559 3.3561e-09     7.6576     95.504      1.669   1.724204    -1.2492      7.544   419.6158 2.5009e+02    -2.2938     -0.548     -0.795    26.6502   996.6174 0.0000e+00
     -0.559 3.6917e-08     7.6576     95.505      1.702   1.758540    -0.4985      7.544   420.4783 2.8570e+02     2.3478     -0.548     -0.795    26.6497   996.6176 0.0000e+00
     -0.559 4.0609e-07     7.6577     95.508      1.727   1.785285    -0.0875      7.545   421.2580 3.5742e+02     4.9133     -0.548     -0.795    26.6498   996.6176 0.0000e+00
     -0.559      0.000     7.6586     95.521      1.736   1.794126    -0.0940      7.552   422.5890 4.5309e+02     5.2286     -0.548     -0.795    26.6496   996.6176 0.0000e+00
     -0.559      0.000     7.6599     95.540      1.744   1.802076    -0.6037      7.558   424.2679 5.4833e+02     5.6024     -0.549     -0.796    26.6493   996.6177 0.0000e+00
     -0.559      0.001     7.6609     95.555      1.759   1.818041    -1.5426      7.561   425.3821 5.9262e+02     6.2216     -0.548     -0.794    26.6496   996.6177 0.0000e+00
     -0.559      0.001     7.6611     95.560      1.739   1.797075    -2.0216      7.563   426.2525 6.7630e+02     6.7175     -0.548     -0.795    26.6505   996.6175 0.0000e+00
     -0.559      0.000     7.6612     95.565      1.682   1.738655    -1.5656      7.566   426.9621 9.3058e+02     8.6162     -0.548     -0.795    26.6523   996.6169 0.0000e+00
     -0.558     -0.001     7.6609     95.563      1.627   1.681946     3.9784      7.571   426.4765 1.1877e+03    29.1784     -0.548     -0.796    26.6539   996.6165 0.0000e+00
     -0.557     -0.002     7.6591     95.543      1.566   1.618308    64.8813      7.575   416.5095 1.3007e+03   255.2684     -0.545     -0.791    26.6551   996.6161 0.0000e+00
     -0.558     -0.002     7.6573     95.524      1.490   1.539478   176.5247      7.565   308.0862 1.3279e+03   669.6363     -0.545     -0.790    26.6562   996.6159 0.0000e+00
