* Sea-Bird SBE19plus  Data File:
* FileName = C:\DATA\081919_fcr_0005.hex
* Software version 2.8.0.119 SB_Terminal.dll
* Temperature SN = 7809
* Conductivity SN = 7809
* System UpLoad Time = Aug 20 2019 10:49:22
* <ApplicationData>
* <Seaterm232>
* <SoftwareVersion>2.8.0.119</SoftwareVersion>
* <BuildDate>07-Nov-2018</BuildDate>
* </Seaterm232>
* </ApplicationData>
* cast   5 19 Aug 2019 11:39:37 samples 2245 to 2998, avg = 1, stop = mag switch
# nquan = 16
# nvalues = 661                         
# units = specified
# name 0 = depFM: Depth [fresh water, m]
# name 1 = dz/dtM: Descent Rate [m/s]
# name 2 = sbeox0Mg/L: Oxygen, SBE 43 [mg/l]
# name 3 = sbeox0PS: Oxygen, SBE 43 [% saturation]
# name 4 = specc: Specific Conductance [uS/cm]
# name 5 = c0uS/cm: Conductivity [uS/cm]
# name 6 = flECO-AFL: Fluorescence, WET Labs ECO-AFL/FL [mg/m^3]
# name 7 = ph: pH
# name 8 = orp: Oxidation Reduction Potential [mV]
# name 9 = par/sat/log: PAR/Logarithmic, Satlantic
# name 10 = turbWETntu0: Turbidity, WET Labs ECO [NTU]
# name 11 = prdM: Pressure, Strain Gauge [db]
# name 12 = prdE: Pressure, Strain Gauge [psi]
# name 13 = tv290C: Temperature [ITS-90, deg C]
# name 14 = density00: Density [density, kg/m^3]
# name 15 = flag:  0.000e+00
# span 0 =     -0.555,      5.472       
# span 1 =     -0.011,      0.151       
# span 2 =     0.0961,    11.0731       
# span 3 =      0.906,    141.342       
# span 4 =      3.029,     86.667       
# span 5 =   3.072415,  68.003577       
# span 6 =    -0.8801,    13.6562       
# span 7 =      7.306,      9.155       
# span 8 =   -47.1383,   227.9987       
# span 9 = 5.0635e-01, 2.1656e+03       
# span 10 =    -4.8339,   106.5539      
# span 11 =     -0.545,      5.367      
# span 12 =     -0.791,      7.784      
# span 13 =    11.9869,    28.1145      
# span 14 =   996.2217,   999.5461      
# span 15 = 0.0000e+00, 0.0000e+00      
# interval = seconds: 0.25
# start_time = Aug 19 2019 11:39:37 [Instrument's time stamp, header]
# bad_flag = -9.990e-29
# <Sensors count="9" >
#   <sensor Channel="1" >
#     <!-- Count, Temperature -->
#     <TemperatureSensor SensorID="58" >
#       <SerialNumber>7809</SerialNumber>
#       <CalibrationDate>24-Mar-19</CalibrationDate>
#       <A0>1.21792325e-003</A0>
#       <A1>2.81669265e-004</A1>
#       <A2>-1.60333336e-006</A2>
#       <A3>1.98414625e-007</A3>
#       <Slope>1.00000000</Slope>
#       <Offset>0.0000</Offset>
#     </TemperatureSensor>
#   </sensor>
#   <sensor Channel="2" >
#     <!-- Frequency 0, Conductivity -->
#     <ConductivitySensor SensorID="3" >
#       <SerialNumber>7809</SerialNumber>
#       <CalibrationDate>24-Mar-19</CalibrationDate>
#       <UseG_J>1</UseG_J>
#       <!-- Cell const and series R are applicable only for wide range sensors. -->
#       <SeriesR>0.0000</SeriesR>
#       <CellConst>2000.0000</CellConst>
#       <ConductivityType>0</ConductivityType>
#       <Coefficients equation="0" >
#         <A>0.00000000e+000</A>
#         <B>0.00000000e+000</B>
#         <C>0.00000000e+000</C>
#         <D>0.00000000e+000</D>
#         <M>0.0</M>
#         <CPcor>-9.57000000e-008</CPcor>
#       </Coefficients>
#       <Coefficients equation="1" >
#         <G>-1.00589325e+000</G>
#         <H>1.26816302e-001</H>
#         <I>-1.51560448e-004</I>
#         <J>2.67137274e-005</J>
#         <CPcor>-9.57000000e-008</CPcor>
#         <CTcor>3.2500e-006</CTcor>
#         <!-- WBOTC not applicable unless ConductivityType = 1. -->
#         <WBOTC>0.00000000e+000</WBOTC>
#       </Coefficients>
#       <Slope>1.00000000</Slope>
#       <Offset>0.00000</Offset>
#     </ConductivitySensor>
#   </sensor>
#   <sensor Channel="3" >
#     <!-- Count, Pressure, Strain Gauge -->
#     <PressureSensor SensorID="46" >
#       <SerialNumber>7809</SerialNumber>
#       <CalibrationDate>11-Mar-19</CalibrationDate>
#       <PA0>4.56561833e-002</PA0>
#       <PA1>4.85095118e-004</PA1>
#       <PA2>-2.88327090e-012</PA2>
#       <PTEMPA0>-5.48784562e+001</PTEMPA0>
#       <PTEMPA1>5.53756816e+001</PTEMPA1>
#       <PTEMPA2>-5.86727098e-001</PTEMPA2>
#       <PTCA0>5.25246745e+005</PTCA0>
#       <PTCA1>1.22304214e+001</PTCA1>
#       <PTCA2>-3.56745036e-001</PTCA2>
#       <PTCB0>2.51668750e+001</PTCB0>
#       <PTCB1>3.75000000e-004</PTCB1>
#       <PTCB2>0.00000000e+000</PTCB2>
#       <Offset>0.000000</Offset>
#     </PressureSensor>
#   </sensor>
#   <sensor Channel="4" >
#     <!-- A/D voltage 0, Oxygen, SBE 43 -->
#     <OxygenSensor SensorID="38" >
#       <SerialNumber>0434</SerialNumber>
#       <CalibrationDate>13-Apr-19</CalibrationDate>
#       <Use2007Equation>1</Use2007Equation>
#       <CalibrationCoefficients equation="0" >
#         <!-- Coefficients for Owens-Millard equation. -->
#         <Boc>0.0000</Boc>
#         <Soc>0.0000e+000</Soc>
#         <offset>0.0000</offset>
#         <Pcor>0.00e+000</Pcor>
#         <Tcor>0.0000</Tcor>
#         <Tau>0.0</Tau>
#       </CalibrationCoefficients>
#       <CalibrationCoefficients equation="1" >
#         <!-- Coefficients for Sea-Bird equation - SBE calibration in 2007 and later. -->
#         <Soc>4.2007e-001</Soc>
#         <offset>-0.6109</offset>
#         <A>-4.3656e-003</A>
#         <B> 1.7017e-004</B>
#         <C>-2.5341e-006</C>
#         <D0> 2.5826e+000</D0>
#         <D1> 1.92634e-004</D1>
#         <D2>-4.64803e-002</D2>
#         <E> 3.6000e-002</E>
#         <Tau20> 1.1800</Tau20>
#         <H1>-3.3000e-002</H1>
#         <H2> 5.0000e+003</H2>
#         <H3> 1.4500e+003</H3>
#       </CalibrationCoefficients>
#     </OxygenSensor>
#   </sensor>
#   <sensor Channel="5" >
#     <!-- A/D voltage 1, PAR/Logarithmic, Satlantic -->
#     <PARLog_SatlanticSensor SensorID="76" >
#       <SerialNumber>1122</SerialNumber>
#       <CalibrationDate>08-May-2019</CalibrationDate>
#       <a0>9.7456e-001</a0>
#       <a1>8.1640e-001</a1>
#       <Im>1.3589e+000</Im>
#       <Multiplier>1.0000e+000</Multiplier>
#     </PARLog_SatlanticSensor>
#   </sensor>
#   <sensor Channel="6" >
#     <!-- A/D voltage 2, pH -->
#     <pH_Sensor SensorID="43" >
#       <SerialNumber>0363</SerialNumber>
#       <CalibrationDate>15-Apr-19</CalibrationDate>
#       <Slope>4.5952</Slope>
#       <Offset>2.5370</Offset>
#     </pH_Sensor>
#   </sensor>
#   <sensor Channel="7" >
#     <!-- A/D voltage 3, Oxidation Reduction Potential -->
#     <OxidationReductionPotentialSensor SensorID="41" >
#       <SerialNumber>0363</SerialNumber>
#       <CalibrationDate>15-Apr-19</CalibrationDate>
#       <B>2.499480</B>
#       <M>-0.496195</M>
#       <Offset>0.0</Offset>
#     </OxidationReductionPotentialSensor>
#   </sensor>
#   <sensor Channel="8" >
#     <!-- A/D voltage 4, Fluorometer, WET Labs ECO-AFL/FL -->
#     <FluoroWetlabECO_AFL_FL_Sensor SensorID="20" >
#       <SerialNumber>FLNTURT-2496</SerialNumber>
#       <CalibrationDate>08-May-2019</CalibrationDate>
#       <ScaleFactor>5.00000000e+001</ScaleFactor>
#       <!-- Dark output -->
#       <Vblank>0.0550</Vblank>
#     </FluoroWetlabECO_AFL_FL_Sensor>
#   </sensor>
#   <sensor Channel="9" >
#     <!-- A/D voltage 5, Turbidity Meter, WET Labs, ECO-NTU -->
#     <TurbidityMeter SensorID="67" >
#       <SerialNumber>FLNTURT-2496</SerialNumber>
#       <CalibrationDate>08-May-2019</CalibrationDate>
#       <ScaleFactor>189.000000</ScaleFactor>
#       <!-- Dark output -->
#       <DarkVoltage>0.071000</DarkVoltage>
#     </TurbidityMeter>
#   </sensor>
# </Sensors>
# datcnv_date = Aug 20 2019 10:51:57, 7.26.7.129 [datcnv_vars = 15]
# datcnv_in = C:\DATA\081919_fcr30.hex C:\DATA\SBE19plusV2_7809.xmlcon
# datcnv_skipover = 0
# datcnv_ox_hysteresis_correction = yes
# datcnv_ox_tau_correction = yes
# filter_date = Aug 20 2019 10:52:12, 7.26.7.129
# filter_in = C:\DATA\081919_fcr30.cnv
# filter_low_pass_tc_A = 0.030
# filter_low_pass_tc_B = 0.150
# filter_low_pass_A_vars = prdM prdE tv290C density00
# filter_low_pass_B_vars = depFM dz/dtM sbeox0Mg/L sbeox0PS specc c0uS/cm flECO-AFL ph orp par/sat/log turbWETntu0
# alignctd_date = Aug 20 2019 10:52:30, 7.26.7.129
# alignctd_in = C:\DATA\081919_fcr30.cnv
# alignctd_adv = dz/dtM 1.000, sbeox0Mg/L 1.000, sbeox0PS 1.000, specc 1.000, c0uS/cm 1.000, flECO-AFL 1.000, ph 1.000, orp 1.000, turbWETntu0 1.000                                                                                 
# file_type = ascii
*END*
     -0.553 -1.060e-13     7.1752     87.775      5.150   5.210355    -0.1762      7.405   180.8698 1.8350e+02     0.5612     -0.542     -0.787    25.5624   996.9084 0.0000e+00
     -0.553 -1.166e-12     7.1685     87.699      5.076   5.136400    -0.1772      7.410   175.4907 1.7868e+02     0.6480     -0.543     -0.787    25.5686   996.9067 0.0000e+00
     -0.553 -1.283e-11     7.1661     87.676      5.471   5.536384    -0.1899      7.419   171.9722 1.6226e+02     0.6745     -0.543     -0.787    25.5754   996.9048 0.0000e+00
     -0.553 -1.411e-10     7.1653     87.671      6.546   6.624316    -0.1730      7.434   170.7649 1.5809e+02     0.4878     -0.543     -0.787    25.5805   996.9033 0.0000e+00
     -0.554 -1.552e-09     7.1669     87.695      8.241   8.340306    -0.1295      7.449   170.2710 2.0772e+02     0.1602     -0.543     -0.788    25.5849   996.9021 0.0000e+00
     -0.554 -1.707e-08     7.1710     87.750     10.063  10.185557    -0.1137      7.462   169.7001 2.8402e+02    -0.0418     -0.543     -0.788    25.5883   996.9012 0.0000e+00
     -0.554 -1.878e-07     7.1748     87.800     11.365  11.504045    -0.1213      7.473   169.0255 3.2998e+02    -0.0872     -0.543     -0.787    25.5916   996.9004 0.0000e+00
     -0.554 -1.878e-07     7.1776     87.839     11.651  11.794239    -0.1257      7.483   168.1370 3.4855e+02    -0.0937     -0.544     -0.788    25.5946   996.8998 0.0000e+00
     -0.554 -1.707e-08     7.1798     87.870     11.211  11.348798    -0.1232      7.489   167.2171 3.4595e+02    -0.0876     -0.543     -0.788    25.5976   996.8995 0.0000e+00
     -0.554 -1.552e-09     7.1818     87.898     10.678  10.809339    -0.1172      7.489   166.8510 3.3550e+02    -0.0452     -0.543     -0.788    25.6002   996.8993 0.0000e+00
     -0.554 -1.411e-10     7.1842     87.932     10.154  10.279646    -0.1143      7.487   167.3245 3.3203e+02    -0.0078     -0.543     -0.787    25.6027   996.8991 0.0000e+00
     -0.554 -1.283e-11     7.1857     87.953      9.642   9.761948    -0.1142      7.487   168.2087 2.7954e+02    -0.0284     -0.543     -0.788    25.6053   996.8984 0.0000e+00
     -0.554 -1.166e-12     7.1868     87.971      9.252   9.367410    -0.1160      7.490   168.8522 1.8376e+02    -0.0647     -0.544     -0.788    25.6077   996.8975 0.0000e+00
     -0.554 -1.060e-13     7.1887     87.998      8.884   8.995610    -0.1185      7.492   169.3412 1.8606e+02    -0.0858     -0.544     -0.788    25.6102   996.8968 0.0000e+00
     -0.554 -9.640e-15     7.1898     88.016      8.393   8.499200    -0.1190      7.492   170.1634 2.9729e+02    -0.0877     -0.544     -0.788    25.6126   996.8960 0.0000e+00
     -0.554 -8.760e-16     7.1900     88.022      7.893   7.992387    -0.1127      7.492   171.3079 3.8146e+02    -0.0879     -0.543     -0.788    25.6152   996.8952 0.0000e+00
     -0.554 -7.965e-17     7.1892     88.016      7.526   7.621493    -0.1035      7.490   172.3370 4.0444e+02    -0.0884     -0.543     -0.788    25.6177   996.8945 0.0000e+00
     -0.554 -7.240e-18     7.1868     87.991      7.281   7.373965    -0.1024      7.489   173.0560 4.0195e+02    -0.0936     -0.544     -0.788    25.6205   996.8937 0.0000e+00
     -0.554 -6.585e-19     7.1849     87.972      7.127   7.217859    -0.1085      7.492   173.8075 3.8955e+02    -0.1175     -0.543     -0.787    25.6228   996.8929 0.0000e+00
     -0.554 -5.985e-20     7.1856     87.986      7.101   7.191764    -0.1165      7.493   174.7980 3.6429e+02    -0.1483     -0.543     -0.788    25.6253   996.8921 0.0000e+00
     -0.554 -5.440e-21     7.1856     87.990      7.281   7.375341    -0.1217      7.494   175.7402 3.0813e+02    -0.2038     -0.544     -0.788    25.6277   996.8914 0.0000e+00
     -0.554 -4.946e-22     7.1832     87.965      7.377   7.472697    -0.1188      7.494   176.6809 2.2318e+02    -0.2644     -0.543     -0.788    25.6303   996.8907 0.0000e+00
     -0.554 -4.496e-23     7.1810     87.942      7.010   7.101273    -0.1068      7.489   177.9128 1.4890e+02    -0.2908     -0.543     -0.788    25.6332   996.8899 0.0000e+00
     -0.554 -4.088e-24     7.1795     87.928      6.413   6.497101    -0.1163      7.478   179.1909 1.1617e+02    -0.3594     -0.544     -0.789    25.6356   996.8892 0.0000e+00
     -0.554 -3.716e-25     7.1786     87.922      5.921   5.998504    -0.3201      7.469   180.3477 1.1025e+02    -1.1587     -0.543     -0.788    25.6385   996.8885 0.0000e+00
     -0.554 -3.378e-26     7.1781     87.920      5.562   5.635893    -0.6895      7.472   181.5750 1.0923e+02    -2.6468     -0.544     -0.788    25.6415   996.8879 0.0000e+00
     -0.554 -3.071e-27     7.1770     87.912      5.275   5.344933    -0.8801      7.481   182.5868 1.0944e+02    -3.4741     -0.544     -0.789    25.6443   996.8870 0.0000e+00
     -0.554 -2.764e-28     7.1748     87.890      5.074   5.142228    -0.7867      7.490   182.8583 1.1259e+02    -3.4925     -0.544     -0.788    25.6470   996.8861 0.0000e+00
     -0.554 5.7548e-30     7.1736     87.882      5.144   5.212956     0.4050      7.495   182.8790 1.2760e+02    -3.0659     -0.544     -0.789    25.6499   996.8853 0.0000e+00
     -0.555 3.4017e-28     7.1744     87.897      5.492   5.566362     2.5875      7.498   183.5250 2.4746e+02    -2.3473     -0.544     -0.788    25.6529   996.8844 0.0000e+00
     -0.555 3.7671e-27     7.1747     87.904      5.725   5.802921     3.7702      7.499   184.6462 4.5842e+02    -1.9480     -0.544     -0.789    25.6560   996.8835 0.0000e+00
     -0.555 4.1440e-26     7.1734     87.893      5.526   5.601591     3.7895      7.495   185.8528 5.6177e+02    -1.7780     -0.544     -0.789    25.6592   996.8826 0.0000e+00
     -0.555 4.5584e-25     7.1719     87.880      5.028   5.096690     2.8128      7.484   187.3594 5.5746e+02    -0.4549     -0.544     -0.788    25.6624   996.8818 0.0000e+00
     -0.555 5.0142e-24     7.1706     87.868      4.517   4.577947     0.9947      7.471   188.9241 5.5454e+02     1.9560     -0.544     -0.789    25.6658   996.8810 0.0000e+00
     -0.555 5.5157e-23     7.1701     87.867      4.152   4.209170    -0.0045      7.466   189.8867 5.5234e+02     3.2518     -0.544     -0.788    25.6692   996.8802 0.0000e+00
     -0.555 6.0672e-22     7.1704     87.875      3.942   3.996485    -0.0861      7.468   190.5658 5.5217e+02     3.1849     -0.544     -0.789    25.6722   996.8793 0.0000e+00
     -0.555 6.6740e-21     7.1700     87.873      3.792   3.844114     0.0422      7.468   191.4560 5.7070e+02     1.1477     -0.544     -0.789    25.6750   996.8785 0.0000e+00
     -0.555 7.3414e-20     7.1695     87.872      3.647   3.697609     0.2903      7.461   192.5627 6.0169e+02    -2.6348     -0.544     -0.789    25.6777   996.8777 0.0000e+00
     -0.555 8.0755e-19     7.1692     87.872      3.569   3.619211     0.4257      7.454   193.7091 6.1410e+02    -4.6962     -0.544     -0.789    25.6806   996.8768 0.0000e+00
     -0.555 8.8830e-18     7.1688     87.871      3.544   3.593265     0.4396      7.453   194.6481 5.9060e+02    -4.8339     -0.544     -0.788    25.6833   996.8761 0.0000e+00
     -0.555 9.7713e-17     7.1698     87.887      3.462   3.510626     0.4231      7.458   195.5695 5.5435e+02    -4.6605     -0.544     -0.789    25.6861   996.8753 0.0000e+00
     -0.555 1.0748e-15     7.1705     87.899      3.333   3.380455     0.1745      7.467   196.7621 5.3840e+02    -2.6662     -0.544     -0.789    25.6886   996.8746 0.0000e+00
     -0.555 1.1823e-14     7.1691     87.886      3.241   3.286725    -0.2777      7.474   198.4845 5.3815e+02     1.0587     -0.544     -0.789    25.6910   996.8740 0.0000e+00
     -0.555 1.3006e-13     7.1686     87.883      3.219   3.264480    -0.5188      7.475   200.6496 5.2817e+02     3.1145     -0.544     -0.789    25.6933   996.8734 0.0000e+00
     -0.555 1.4306e-12     7.1692     87.895      3.193   3.238232    -0.5384      7.471   202.7215 5.1646e+02     3.1496     -0.545     -0.790    25.6954   996.8728 0.0000e+00
     -0.555 1.5737e-11     7.1697     87.904      3.115   3.159457    -0.4281      7.461   204.3490 5.2806e+02     1.3517     -0.544     -0.789    25.6976   996.8722 0.0000e+00
     -0.555 1.7311e-10     7.1704     87.915      3.029   3.072415    -0.2000      7.437   204.3241 5.8468e+02    -1.9757     -0.544     -0.789    25.6998   996.8716 0.0000e+00
     -0.555 1.9042e-09     7.1716     87.933      3.030   3.072951    -0.0690      7.397   189.4281 6.9376e+02    -3.7520     -0.544     -0.789    25.7021   996.8711 0.0000e+00
     -0.555 2.0946e-08     7.1740     87.966      3.246   3.292671    -0.0492      7.364   162.5081 8.2576e+02    -3.5095     -0.544     -0.789    25.7041   996.8705 0.0000e+00
     -0.555 2.3040e-07     7.1750     87.981      3.524   3.574551    -0.0727      7.351   153.1301 9.3128e+02     0.3986     -0.544     -0.789    25.7060   996.8700 0.0000e+00
     -0.555      0.000     7.1737     87.968      3.578   3.629608    -0.1367      7.337   160.6156 9.9731e+02     7.5492     -0.545     -0.790    25.7088   996.8693 0.0000e+00
     -0.555      0.000     7.1728     87.962      3.465   3.514793    -0.1730      7.321   166.7176 1.0708e+03    11.5050     -0.545     -0.790    25.7103   996.8688 0.0000e+00
     -0.555      0.000     7.1722     87.962      3.466   3.517053    -0.1383      7.312   165.3907 1.1801e+03    11.6874     -0.544     -0.789    25.7132   996.8680 0.0000e+00
     -0.555      0.003     7.1689     87.963      3.974   4.037148     0.3259      7.306   106.5428 1.3093e+03     9.0325     -0.544     -0.789    25.7141   996.8680 0.0000e+00
     -0.555      0.012     7.1491     87.927      6.749   6.888255     1.1829      7.369     0.9400 1.4367e+03     4.0833     -0.545     -0.790    25.7179   996.8670 0.0000e+00
     -0.555      0.028     7.0993     87.795     14.086  14.475155     1.6494      7.594   -47.1383 1.5300e+03     1.3648     -0.545     -0.791    25.7168   996.8672 0.0000e+00
     -0.553      0.050     7.0316     87.590     25.349  26.222539     1.6653      7.924   -11.8772 1.5613e+03     1.1029     -0.545     -0.790    25.7243   996.8653 0.0000e+00
     -0.543      0.074     6.9685     87.383     35.065  36.472042     1.3406      8.240    62.9889 1.4499e+03     1.3106     -0.538     -0.781    25.7181   996.8669 0.0000e+00
     -0.518      0.099     6.9200     87.217     38.700  40.437147     0.7319      8.495   117.1782 1.0952e+03     1.7785     -0.513     -0.744    25.7979   996.8463 0.0000e+00
     -0.481      0.122     6.8849     87.096     38.822  40.720692     0.4001      8.678   136.2049 8.1691e+02     2.0413     -0.471     -0.683    26.1451   996.7560 0.0000e+00
     -0.441      0.139     6.8629     87.063     38.710  40.725909     0.3813      8.798   147.0308 1.0520e+03     2.2598     -0.431     -0.625    26.6049   996.6363 0.0000e+00
     -0.403      0.149     6.8593     87.238     38.572  40.690863     0.4266      8.874   154.5486 1.5460e+03     4.6828     -0.397     -0.577    26.9823   996.5373 0.0000e+00
     -0.362      0.151     6.8829     87.736     38.408  40.614553     0.8441      8.918   158.6144 1.8660e+03    31.3039     -0.356     -0.516    27.2601   996.4611 0.0000e+00
     -0.320      0.148     6.9328     88.511     38.236  40.501725     1.6054      8.938   157.8167 1.9944e+03    80.0792     -0.311     -0.453    27.4567   996.4063 0.0000e+00
