* Sea-Bird SBE19plus  Data File:
* FileName = C:\DATA\100219_FCR_50_0002.hex
* Software version 2.8.0.119 SB_Terminal.dll
* Temperature SN = 7809
* Conductivity SN = 7809
* System UpLoad Time = Oct 03 2019 10:14:24
* <ApplicationData>
* <Seaterm232>
* <SoftwareVersion>2.8.0.119</SoftwareVersion>
* <BuildDate>07-Nov-2018</BuildDate>
* </Seaterm232>
* </ApplicationData>
* cast   2 02 Oct 2019 14:03:42 samples 523 to 1608, avg = 1, stop = mag switch
# nquan = 16
# nvalues = 762                         
# units = specified
# name 0 = depFM: Depth [fresh water, m]
# name 1 = dz/dtM: Descent Rate [m/s]
# name 2 = sbeox0ML/L: Oxygen, SBE 43 [ml/l]
# name 3 = sbeox0PS: Oxygen, SBE 43 [% saturation]
# name 4 = specc: Specific Conductance [uS/cm]
# name 5 = c0uS/cm: Conductivity [uS/cm]
# name 6 = flECO-AFL: Fluorescence, WET Labs ECO-AFL/FL [mg/m^3]
# name 7 = ph: pH
# name 8 = orp: Oxidation Reduction Potential [mV]
# name 9 = par/sat/log: PAR/Logarithmic, Satlantic
# name 10 = turbWETntu0: Turbidity, WET Labs ECO [NTU]
# name 11 = prdM: Pressure, Strain Gauge [db]
# name 12 = prdE: Pressure, Strain Gauge [psi]
# name 13 = tv290C: Temperature [ITS-90, deg C]
# name 14 = density00: Density [density, kg/m^3]
# name 15 = flag:  0.000e+00
# span 0 =     -0.572,      9.612       
# span 1 =     -0.012,      0.140       
# span 2 =    -0.3343,     8.4636       
# span 3 =     -4.409,    144.462       
# span 4 =     20.544,    436.824       
# span 5 =  21.283967, 335.191927       
# span 6 =    -0.1290,    13.0126       
# span 7 =      6.403,      9.017       
# span 8 =    10.3878,   272.3822       
# span 9 = 1.2338e-01, 4.5896e+02       
# span 10 =    -0.6072,    29.9480      
# span 11 =     -0.570,      9.427      
# span 12 =     -0.826,     13.672      
# span 13 =    12.9360,    27.6398      
# span 14 =   996.3443,   999.5609      
# span 15 = 0.0000e+00, 0.0000e+00      
# interval = seconds: 0.25
# start_time = Oct 02 2019 14:03:42 [Instrument's time stamp, header]
# bad_flag = -9.990e-29
# <Sensors count="9" >
#   <sensor Channel="1" >
#     <!-- Count, Temperature -->
#     <TemperatureSensor SensorID="58" >
#       <SerialNumber>7809</SerialNumber>
#       <CalibrationDate>24-Mar-19</CalibrationDate>
#       <A0>1.21792325e-003</A0>
#       <A1>2.81669265e-004</A1>
#       <A2>-1.60333336e-006</A2>
#       <A3>1.98414625e-007</A3>
#       <Slope>1.00000000</Slope>
#       <Offset>0.0000</Offset>
#     </TemperatureSensor>
#   </sensor>
#   <sensor Channel="2" >
#     <!-- Frequency 0, Conductivity -->
#     <ConductivitySensor SensorID="3" >
#       <SerialNumber>7809</SerialNumber>
#       <CalibrationDate>24-Mar-19</CalibrationDate>
#       <UseG_J>1</UseG_J>
#       <!-- Cell const and series R are applicable only for wide range sensors. -->
#       <SeriesR>0.0000</SeriesR>
#       <CellConst>2000.0000</CellConst>
#       <ConductivityType>0</ConductivityType>
#       <Coefficients equation="0" >
#         <A>0.00000000e+000</A>
#         <B>0.00000000e+000</B>
#         <C>0.00000000e+000</C>
#         <D>0.00000000e+000</D>
#         <M>0.0</M>
#         <CPcor>-9.57000000e-008</CPcor>
#       </Coefficients>
#       <Coefficients equation="1" >
#         <G>-1.00589325e+000</G>
#         <H>1.26816302e-001</H>
#         <I>-1.51560448e-004</I>
#         <J>2.67137274e-005</J>
#         <CPcor>-9.57000000e-008</CPcor>
#         <CTcor>3.2500e-006</CTcor>
#         <!-- WBOTC not applicable unless ConductivityType = 1. -->
#         <WBOTC>0.00000000e+000</WBOTC>
#       </Coefficients>
#       <Slope>1.00000000</Slope>
#       <Offset>0.00000</Offset>
#     </ConductivitySensor>
#   </sensor>
#   <sensor Channel="3" >
#     <!-- Count, Pressure, Strain Gauge -->
#     <PressureSensor SensorID="46" >
#       <SerialNumber>7809</SerialNumber>
#       <CalibrationDate>11-Mar-19</CalibrationDate>
#       <PA0>4.56561833e-002</PA0>
#       <PA1>4.85095118e-004</PA1>
#       <PA2>-2.88327090e-012</PA2>
#       <PTEMPA0>-5.48784562e+001</PTEMPA0>
#       <PTEMPA1>5.53756816e+001</PTEMPA1>
#       <PTEMPA2>-5.86727098e-001</PTEMPA2>
#       <PTCA0>5.25246745e+005</PTCA0>
#       <PTCA1>1.22304214e+001</PTCA1>
#       <PTCA2>-3.56745036e-001</PTCA2>
#       <PTCB0>2.51668750e+001</PTCB0>
#       <PTCB1>3.75000000e-004</PTCB1>
#       <PTCB2>0.00000000e+000</PTCB2>
#       <Offset>0.000000</Offset>
#     </PressureSensor>
#   </sensor>
#   <sensor Channel="4" >
#     <!-- A/D voltage 0, Oxygen, SBE 43 -->
#     <OxygenSensor SensorID="38" >
#       <SerialNumber>0434</SerialNumber>
#       <CalibrationDate>13-Apr-19</CalibrationDate>
#       <Use2007Equation>1</Use2007Equation>
#       <CalibrationCoefficients equation="0" >
#         <!-- Coefficients for Owens-Millard equation. -->
#         <Boc>0.0000</Boc>
#         <Soc>0.0000e+000</Soc>
#         <offset>0.0000</offset>
#         <Pcor>0.00e+000</Pcor>
#         <Tcor>0.0000</Tcor>
#         <Tau>0.0</Tau>
#       </CalibrationCoefficients>
#       <CalibrationCoefficients equation="1" >
#         <!-- Coefficients for Sea-Bird equation - SBE calibration in 2007 and later. -->
#         <Soc>4.2007e-001</Soc>
#         <offset>-0.6109</offset>
#         <A>-4.3656e-003</A>
#         <B> 1.7017e-004</B>
#         <C>-2.5341e-006</C>
#         <D0> 2.5826e+000</D0>
#         <D1> 1.92634e-004</D1>
#         <D2>-4.64803e-002</D2>
#         <E> 3.6000e-002</E>
#         <Tau20> 1.1800</Tau20>
#         <H1>-3.3000e-002</H1>
#         <H2> 5.0000e+003</H2>
#         <H3> 1.4500e+003</H3>
#       </CalibrationCoefficients>
#     </OxygenSensor>
#   </sensor>
#   <sensor Channel="5" >
#     <!-- A/D voltage 1, PAR/Logarithmic, Satlantic -->
#     <PARLog_SatlanticSensor SensorID="76" >
#       <SerialNumber>1122</SerialNumber>
#       <CalibrationDate>08-May-2019</CalibrationDate>
#       <a0>9.7456e-001</a0>
#       <a1>8.1640e-001</a1>
#       <Im>1.3589e+000</Im>
#       <Multiplier>1.0000e+000</Multiplier>
#     </PARLog_SatlanticSensor>
#   </sensor>
#   <sensor Channel="6" >
#     <!-- A/D voltage 2, pH -->
#     <pH_Sensor SensorID="43" >
#       <SerialNumber>0363</SerialNumber>
#       <CalibrationDate>15-Apr-19</CalibrationDate>
#       <Slope>4.5952</Slope>
#       <Offset>2.5370</Offset>
#     </pH_Sensor>
#   </sensor>
#   <sensor Channel="7" >
#     <!-- A/D voltage 3, Oxidation Reduction Potential -->
#     <OxidationReductionPotentialSensor SensorID="41" >
#       <SerialNumber>0363</SerialNumber>
#       <CalibrationDate>15-Apr-19</CalibrationDate>
#       <B>2.499480</B>
#       <M>-0.496195</M>
#       <Offset>0.0</Offset>
#     </OxidationReductionPotentialSensor>
#   </sensor>
#   <sensor Channel="8" >
#     <!-- A/D voltage 4, Fluorometer, WET Labs ECO-AFL/FL -->
#     <FluoroWetlabECO_AFL_FL_Sensor SensorID="20" >
#       <SerialNumber>FLNTURT-2496</SerialNumber>
#       <CalibrationDate>08-May-2019</CalibrationDate>
#       <ScaleFactor>5.00000000e+001</ScaleFactor>
#       <!-- Dark output -->
#       <Vblank>0.0550</Vblank>
#     </FluoroWetlabECO_AFL_FL_Sensor>
#   </sensor>
#   <sensor Channel="9" >
#     <!-- A/D voltage 5, Turbidity Meter, WET Labs, ECO-NTU -->
#     <TurbidityMeter SensorID="67" >
#       <SerialNumber>FLNTURT-2496</SerialNumber>
#       <CalibrationDate>08-May-2019</CalibrationDate>
#       <ScaleFactor>189.000000</ScaleFactor>
#       <!-- Dark output -->
#       <DarkVoltage>0.071000</DarkVoltage>
#     </TurbidityMeter>
#   </sensor>
# </Sensors>
# datcnv_date = Oct 03 2019 10:16:17, 7.26.7.129 [datcnv_vars = 15]
# datcnv_in = C:\DATA\100219_FCR_50.hex C:\DATA\SBE19plusV2_7809.xmlcon
# datcnv_skipover = 0
# datcnv_ox_hysteresis_correction = yes
# datcnv_ox_tau_correction = yes
# filter_date = Oct 03 2019 10:16:50, 7.26.7.129
# filter_in = C:\DATA\100219_FCR_50.cnv
# filter_low_pass_tc_A = 0.030
# filter_low_pass_tc_B = 0.150
# filter_low_pass_A_vars = sbeox0ML/L prdM prdE tv290C density00
# filter_low_pass_B_vars = depFM dz/dtM sbeox0PS specc c0uS/cm flECO-AFL ph orp par/sat/log turbWETntu0
# alignctd_date = Oct 03 2019 10:17:10, 7.26.7.129
# alignctd_in = C:\DATA\100219_FCR_50.cnv
# alignctd_adv = dz/dtM 1.000, sbeox0PS 1.000, specc 1.000, c0uS/cm 1.000, flECO-AFL 1.000, ph 1.000, orp 1.000, turbWETntu0 1.000                                                                                                   
# file_type = ascii
*END*
     -0.572      0.068     5.3764     97.613     20.544  21.283967    -0.1057      8.237   272.3822 4.1056e+02    -0.6072     -0.570     -0.826    27.6233   996.3486 0.0000e+00
     -0.543      0.078     5.3738     97.622     21.754  22.427350    -0.1140      8.439   269.1575 4.1834e+02    -0.6044     -0.537     -0.781    27.6398   996.3443 0.0000e+00
     -0.502      0.083     5.3823     97.607     26.875  27.619201    -0.1224      8.602   267.9513 4.2412e+02    -0.4797     -0.488     -0.708    27.5648   996.3681 0.0000e+00
     -0.470      0.083     5.4235     97.588     35.238  36.152080    -0.1201      8.719   267.0904 4.2642e+02    -0.2470     -0.452     -0.656    27.1742   996.4786 0.0000e+00
     -0.458      0.075     5.4669     97.584     39.955  40.946385    -0.1206      8.802   266.4920 4.2935e+02    -0.1174     -0.446     -0.647    26.7540   996.5945 0.0000e+00
     -0.452      0.060     5.4906     97.572     40.512  41.481443    -0.1290      8.871   265.1041 4.3627e+02    -0.1250     -0.449     -0.652    26.5158   996.6587 0.0000e+00
     -0.437      0.042     5.5030     97.544     38.795  39.700990    -0.1266      8.930   262.9572 4.4207e+02    -0.1425     -0.429     -0.621    26.3806   996.6965 0.0000e+00
     -0.421      0.029     5.5091     97.525     34.990  35.795941    -0.1177      8.976   260.3235 4.4432e+02    -0.1314     -0.410     -0.594    26.2955   996.7237 0.0000e+00
     -0.412      0.021     5.5167     97.521     34.290  35.079275    -0.1162      9.004   257.4369 4.4666e+02    -0.1220     -0.403     -0.584    26.2303   996.7422 0.0000e+00
     -0.410      0.017     5.5206     97.526     37.953  38.841571    -0.1182      9.016   252.8353 4.4666e+02    -0.1280     -0.398     -0.577    26.1853   996.7538 0.0000e+00
     -0.415      0.017     5.5209     97.542     40.342  41.297445    -0.1070      9.017   247.3603 4.4467e+02    -0.0069     -0.407     -0.591    26.1555   996.7620 0.0000e+00
     -0.420      0.023     5.5215     97.556     40.532  41.479258     0.0625      9.012   244.0674 4.4635e+02     1.4738     -0.416     -0.604    26.1421   996.7632 0.0000e+00
     -0.415      0.034     5.5227     97.553     40.563  41.484247     0.3806      9.002   242.5334 4.5105e+02     4.1739     -0.410     -0.596    26.1308   996.7656 0.0000e+00
     -0.401      0.047     5.5193     97.547     40.597  41.484705     0.5567      8.991   241.4599 4.5402e+02     5.6364     -0.395     -0.573    26.1633   996.7596 0.0000e+00
     -0.382      0.057     5.5175     97.551     40.635  41.484744     0.5880      8.984   241.2411 4.5482e+02     5.8511     -0.376     -0.545    26.1936   996.7520 0.0000e+00
     -0.359      0.062     5.5218     97.566     40.674  41.484651     0.7931      8.978   241.3502 4.5532e+02     6.8348     -0.350     -0.509    26.1665   996.7590 0.0000e+00
     -0.340      0.061     5.5243     97.577     40.704  41.483522     1.1734      8.974   239.5960 4.5653e+02     8.5835     -0.331     -0.479    26.1299   996.7691 0.0000e+00
     -0.326      0.060     5.5280     97.569     40.717  41.471051     1.3798      8.967   234.2284 4.5813e+02     9.5261     -0.319     -0.462    26.0904   996.7796 0.0000e+00
     -0.316      0.062     5.5334     97.572     40.726  41.460786     1.3982      8.949   227.2132 4.5896e+02     9.6465     -0.310     -0.449    26.0381   996.7937 0.0000e+00
     -0.306      0.067     5.5396     97.649     40.766  41.486356     1.4137      8.933   223.0911 4.5878e+02     9.9406     -0.300     -0.436    25.9865   996.8074 0.0000e+00
     -0.294      0.072     5.5447     97.823     40.806  41.526242     1.4362      8.933   222.3325 4.4959e+02    10.4606     -0.291     -0.422    25.9483   996.8176 0.0000e+00
     -0.273      0.076     5.5467     98.040     40.816  41.562124     1.4447      8.933   221.7398 4.1282e+02    10.7556     -0.274     -0.398    25.9184   996.8256 0.0000e+00
     -0.240      0.081     5.5476     98.239     40.812  41.602804     1.4477      8.932   221.0015 3.6367e+02    10.7878     -0.232     -0.337    25.8934   996.8325 0.0000e+00
     -0.212      0.083     5.5533     98.426     40.807  41.637245     1.4562      8.931   220.2891 3.3873e+02    10.7836     -0.200     -0.289    25.8749   996.8375 0.0000e+00
     -0.197      0.078     5.5662     98.634     40.805  41.661171     1.4596      8.929   219.2342 3.2648e+02    10.7704     -0.195     -0.282    25.8604   996.8414 0.0000e+00
     -0.183      0.068     5.5764     98.857     40.764  41.638173     1.4539      8.926   218.4852 3.0794e+02    10.7590     -0.185     -0.268    25.8959   996.8320 0.0000e+00
     -0.163      0.056     5.5801     99.061     40.664  41.549668     1.4481      8.922   216.3962 2.9424e+02    10.7767     -0.158     -0.229    25.9700   996.8124 0.0000e+00
     -0.144      0.050     5.5842     99.182     40.587  41.479907     1.4505      8.917   214.4527 2.8847e+02    10.8212     -0.136     -0.196    26.0172   996.8001 0.0000e+00
     -0.136      0.049     5.5943     99.244     40.595  41.493086     1.4575      8.910   213.6587 2.8284e+02    10.8058     -0.131     -0.191    26.0451   996.7927 0.0000e+00
     -0.133      0.047     5.6044     99.347     40.622  41.518561     1.4629      8.902   212.9046 2.7450e+02    10.7543     -0.133     -0.193    26.0686   996.7864 0.0000e+00
     -0.123      0.045     5.6167     99.467     40.585  41.470479     1.4635      8.897   215.4009 2.6525e+02    10.7553     -0.124     -0.179    26.0840   996.7823 0.0000e+00
     -0.107      0.045     5.6225     99.530     40.502  41.356121     1.4651      8.892   218.3732 2.5673e+02    10.7847     -0.106     -0.153    26.0957   996.7791 0.0000e+00
     -0.091      0.048     5.6207     99.465     40.434  41.215105     1.4818      8.887   218.9016 2.5076e+02    10.8142     -0.088     -0.129    26.1034   996.7772 0.0000e+00
     -0.078      0.053     5.6285     98.959     40.437  41.098584     1.5101      8.880   219.6386 2.4854e+02    10.8176     -0.076     -0.110    26.0993   996.7784 0.0000e+00
     -0.068      0.057     5.6394     97.958     40.498  41.026358     1.5209      8.871   220.5722 2.4939e+02    10.7928     -0.067     -0.097    26.0887   996.7813 0.0000e+00
     -0.057      0.060     5.6426     97.242     40.563  40.976476     1.5171      8.864   220.4684 2.5161e+02    10.7765     -0.058     -0.084    26.0697   996.7864 0.0000e+00
     -0.042      0.063     5.6560     97.487     40.612  40.939696     1.5337      8.856   219.1578 2.4810e+02    10.9486     -0.044     -0.064    25.9848   996.8090 0.0000e+00
     -0.021      0.067     5.6541     98.727     40.638  40.898956     1.5652      8.847   217.4592 2.2336e+02    11.3001     -0.021     -0.030    25.8184   996.8530 0.0000e+00
      0.000      0.068     5.5898    100.821     40.671  40.864703     1.5857      8.842   216.9663 1.8549e+02    11.4871      0.002      0.003    25.6363   996.9011 0.0000e+00
      0.018      0.064     5.5469    103.327     40.722  40.842872     1.5909      8.839   217.5872 1.6389e+02    11.5063      0.017      0.025    25.4870   996.9403 0.0000e+00
      0.036      0.054     5.5787    105.902     40.774  40.825344     1.6021      8.837   217.6528 1.5361e+02    11.5973      0.035      0.051    25.3892   996.9659 0.0000e+00
      0.052      0.043     5.6543    108.875     40.848  40.843129     1.6261      8.835   217.2434 1.4479e+02    11.8007      0.054      0.078    25.3170   996.9847 0.0000e+00
      0.060      0.032     5.7942    112.216     40.909  40.867361     1.6376      8.833   216.5946 1.5119e+02    11.9338      0.062      0.089    25.2352   997.0058 0.0000e+00
      0.063      0.023     5.9645    115.011     40.930  40.864344     1.6461      8.831   215.7441 1.6278e+02    11.8953      0.061      0.089    25.1424   997.0298 0.0000e+00
      0.064      0.016     6.1059    116.535     40.954  40.870104     1.6681      8.828   215.5655 1.6240e+02    11.5328      0.062      0.091    25.0493   997.0538 0.0000e+00
      0.066      0.011     6.2815    116.729     40.974  40.873482     1.6872      8.827   215.8975 1.5901e+02    10.9268      0.065      0.095    24.9787   997.0719 0.0000e+00
      0.068      0.008     6.5093    115.821     40.954  40.841685     1.6943      8.827   215.8868 1.5758e+02    10.6311      0.067      0.097    24.9374   997.0826 0.0000e+00
      0.071      0.006     6.6894    114.069     40.923  40.803056     1.6937      8.826   215.6074 1.5593e+02    10.6447      0.070      0.101    24.9128   997.0889 0.0000e+00
      0.075      0.005     6.7781    111.747     40.908  40.787321     1.6888      8.824   215.2724 1.5432e+02    10.6316      0.075      0.109    24.8916   997.0943 0.0000e+00
      0.076      0.005     6.7867    109.255     40.891  40.778408     1.6786      8.822   214.3322 1.5267e+02    10.3419      0.077      0.111    24.8702   997.0998 0.0000e+00
      0.074      0.004     6.7307    107.070     40.854  40.758783     1.6564      8.819   213.0147 1.5258e+02     9.8292      0.073      0.105    24.8545   997.1038 0.0000e+00
      0.073      0.003     6.6254    105.402     40.816  40.740524     1.6375      8.816   212.3349 1.5374e+02     9.5772      0.070      0.101    24.8451   997.1061 0.0000e+00
      0.075      0.002     6.4842    104.212     40.806  40.748129     1.6410      8.813   212.3077 1.5477e+02     9.5902      0.074      0.108    24.8416   997.1070 0.0000e+00
      0.078      0.003     6.3255    103.564     40.831  40.787269     1.6724      8.813   212.5140 1.5375e+02     9.7237      0.078      0.111    24.8509   997.1046 0.0000e+00
      0.078      0.004     6.1916    103.591     40.861  40.832871     1.7226      8.811   211.7323 1.5216e+02     9.9464      0.077      0.112    24.8769   997.0980 0.0000e+00
      0.077      0.004     6.0967    104.317     40.859  40.855118     1.7531      8.809   209.9103 1.5240e+02    10.0542      0.078      0.113    24.9047   997.0909 0.0000e+00
      0.077      0.003     6.0220    105.514     40.835  40.865840     1.7559      8.807   208.8970 1.5425e+02    10.1095      0.074      0.107    24.9248   997.0858 0.0000e+00
      0.079      0.003     5.9804    106.834     40.830  40.899085     1.7126      8.805   209.0309 1.5720e+02    10.0902      0.077      0.111    24.9395   997.0821 0.0000e+00
      0.083      0.003     5.9780    108.077     40.832  40.939700     1.6289      8.803   209.5506 1.6085e+02     9.9195      0.083      0.120    24.9548   997.0781 0.0000e+00
      0.083      0.003     6.0221    109.128     40.832  40.976057     1.5849      8.801   209.5025 1.6263e+02     9.8155      0.082      0.119    24.9844   997.0706 0.0000e+00
      0.083      0.003     6.0959    109.831     40.844  41.021292     1.5789      8.799   208.6212 1.6075e+02     9.8488      0.080      0.116    25.0300   997.0589 0.0000e+00
      0.083      0.003     6.1692    110.101     40.839  41.042289     1.5819      8.795   207.6709 1.5970e+02     9.9613      0.081      0.118    25.0792   997.0461 0.0000e+00
      0.084      0.003     6.2369    110.013     40.819  41.039508     1.5957      8.791   207.1323 1.6078e+02    10.0613      0.083      0.120    25.1252   997.0344 0.0000e+00
