* Sea-Bird SBE19plus  Data File:
* FileName = C:\DATA\101619_fcr50_0002.hex
* Software version 2.8.0.119 SB_Terminal.dll
* Temperature SN = 7809
* Conductivity SN = 7809
* System UpLoad Time = Oct 16 2019 16:52:49
* <ApplicationData>
* <Seaterm232>
* <SoftwareVersion>2.8.0.119</SoftwareVersion>
* <BuildDate>07-Nov-2018</BuildDate>
* </Seaterm232>
* </ApplicationData>
* cast   2 16 Oct 2019 11:42:42 samples 414 to 851, avg = 1, stop = mag switch
# nquan = 16
# nvalues = 372                         
# units = specified
# name 0 = depFM: Depth [fresh water, m]
# name 1 = dz/dtM: Descent Rate [m/s]
# name 2 = sbeox0ML/L: Oxygen, SBE 43 [ml/l]
# name 3 = sbeox0PS: Oxygen, SBE 43 [% saturation]
# name 4 = specc: Specific Conductance [uS/cm]
# name 5 = c0uS/cm: Conductivity [uS/cm]
# name 6 = flECO-AFL: Fluorescence, WET Labs ECO-AFL/FL [mg/m^3]
# name 7 = ph: pH
# name 8 = orp: Oxidation Reduction Potential [mV]
# name 9 = par/sat/log: PAR/Logarithmic, Satlantic
# name 10 = turbWETntu0: Turbidity, WET Labs ECO [NTU]
# name 11 = prdM: Pressure, Strain Gauge [db]
# name 12 = prdE: Pressure, Strain Gauge [psi]
# name 13 = tv290C: Temperature [ITS-90, deg C]
# name 14 = density00: Density [density, kg/m^3]
# name 15 = flag:  0.000e+00
# span 0 =     -0.387,      3.048       
# span 1 =     -0.096,      0.187       
# span 2 =     3.7898,     6.6718       
# span 3 =     56.192,     98.708       
# span 4 =     40.035,     40.788       
# span 5 =  33.777460,  34.244969       
# span 6 =     1.4892,     3.0716       
# span 7 =      7.080,      8.216       
# span 8 =   247.3644,   277.1245       
# span 9 = 2.3062e-01, 4.5625e+02       
# span 10 =     6.9415,    11.7033      
# span 11 =     -0.393,      2.990      
# span 12 =     -0.570,      4.337      
# span 13 =    16.7753,    17.3135      
# span 14 =   998.7390,   998.8469      
# span 15 = 0.0000e+00, 0.0000e+00      
# interval = seconds: 0.25
# start_time = Oct 16 2019 11:42:42 [Instrument's time stamp, header]
# bad_flag = -9.990e-29
# <Sensors count="9" >
#   <sensor Channel="1" >
#     <!-- Count, Temperature -->
#     <TemperatureSensor SensorID="58" >
#       <SerialNumber>7809</SerialNumber>
#       <CalibrationDate>24-Mar-19</CalibrationDate>
#       <A0>1.21792325e-003</A0>
#       <A1>2.81669265e-004</A1>
#       <A2>-1.60333336e-006</A2>
#       <A3>1.98414625e-007</A3>
#       <Slope>1.00000000</Slope>
#       <Offset>0.0000</Offset>
#     </TemperatureSensor>
#   </sensor>
#   <sensor Channel="2" >
#     <!-- Frequency 0, Conductivity -->
#     <ConductivitySensor SensorID="3" >
#       <SerialNumber>7809</SerialNumber>
#       <CalibrationDate>24-Mar-19</CalibrationDate>
#       <UseG_J>1</UseG_J>
#       <!-- Cell const and series R are applicable only for wide range sensors. -->
#       <SeriesR>0.0000</SeriesR>
#       <CellConst>2000.0000</CellConst>
#       <ConductivityType>0</ConductivityType>
#       <Coefficients equation="0" >
#         <A>0.00000000e+000</A>
#         <B>0.00000000e+000</B>
#         <C>0.00000000e+000</C>
#         <D>0.00000000e+000</D>
#         <M>0.0</M>
#         <CPcor>-9.57000000e-008</CPcor>
#       </Coefficients>
#       <Coefficients equation="1" >
#         <G>-1.00589325e+000</G>
#         <H>1.26816302e-001</H>
#         <I>-1.51560448e-004</I>
#         <J>2.67137274e-005</J>
#         <CPcor>-9.57000000e-008</CPcor>
#         <CTcor>3.2500e-006</CTcor>
#         <!-- WBOTC not applicable unless ConductivityType = 1. -->
#         <WBOTC>0.00000000e+000</WBOTC>
#       </Coefficients>
#       <Slope>1.00000000</Slope>
#       <Offset>0.00000</Offset>
#     </ConductivitySensor>
#   </sensor>
#   <sensor Channel="3" >
#     <!-- Count, Pressure, Strain Gauge -->
#     <PressureSensor SensorID="46" >
#       <SerialNumber>7809</SerialNumber>
#       <CalibrationDate>11-Mar-19</CalibrationDate>
#       <PA0>4.56561833e-002</PA0>
#       <PA1>4.85095118e-004</PA1>
#       <PA2>-2.88327090e-012</PA2>
#       <PTEMPA0>-5.48784562e+001</PTEMPA0>
#       <PTEMPA1>5.53756816e+001</PTEMPA1>
#       <PTEMPA2>-5.86727098e-001</PTEMPA2>
#       <PTCA0>5.25246745e+005</PTCA0>
#       <PTCA1>1.22304214e+001</PTCA1>
#       <PTCA2>-3.56745036e-001</PTCA2>
#       <PTCB0>2.51668750e+001</PTCB0>
#       <PTCB1>3.75000000e-004</PTCB1>
#       <PTCB2>0.00000000e+000</PTCB2>
#       <Offset>0.000000</Offset>
#     </PressureSensor>
#   </sensor>
#   <sensor Channel="4" >
#     <!-- A/D voltage 0, Oxygen, SBE 43 -->
#     <OxygenSensor SensorID="38" >
#       <SerialNumber>0434</SerialNumber>
#       <CalibrationDate>13-Apr-19</CalibrationDate>
#       <Use2007Equation>1</Use2007Equation>
#       <CalibrationCoefficients equation="0" >
#         <!-- Coefficients for Owens-Millard equation. -->
#         <Boc>0.0000</Boc>
#         <Soc>0.0000e+000</Soc>
#         <offset>0.0000</offset>
#         <Pcor>0.00e+000</Pcor>
#         <Tcor>0.0000</Tcor>
#         <Tau>0.0</Tau>
#       </CalibrationCoefficients>
#       <CalibrationCoefficients equation="1" >
#         <!-- Coefficients for Sea-Bird equation - SBE calibration in 2007 and later. -->
#         <Soc>4.2007e-001</Soc>
#         <offset>-0.6109</offset>
#         <A>-4.3656e-003</A>
#         <B> 1.7017e-004</B>
#         <C>-2.5341e-006</C>
#         <D0> 2.5826e+000</D0>
#         <D1> 1.92634e-004</D1>
#         <D2>-4.64803e-002</D2>
#         <E> 3.6000e-002</E>
#         <Tau20> 1.1800</Tau20>
#         <H1>-3.3000e-002</H1>
#         <H2> 5.0000e+003</H2>
#         <H3> 1.4500e+003</H3>
#       </CalibrationCoefficients>
#     </OxygenSensor>
#   </sensor>
#   <sensor Channel="5" >
#     <!-- A/D voltage 1, PAR/Logarithmic, Satlantic -->
#     <PARLog_SatlanticSensor SensorID="76" >
#       <SerialNumber>1122</SerialNumber>
#       <CalibrationDate>08-May-2019</CalibrationDate>
#       <a0>9.7456e-001</a0>
#       <a1>8.1640e-001</a1>
#       <Im>1.3589e+000</Im>
#       <Multiplier>1.0000e+000</Multiplier>
#     </PARLog_SatlanticSensor>
#   </sensor>
#   <sensor Channel="6" >
#     <!-- A/D voltage 2, pH -->
#     <pH_Sensor SensorID="43" >
#       <SerialNumber>0363</SerialNumber>
#       <CalibrationDate>15-Apr-19</CalibrationDate>
#       <Slope>4.5952</Slope>
#       <Offset>2.5370</Offset>
#     </pH_Sensor>
#   </sensor>
#   <sensor Channel="7" >
#     <!-- A/D voltage 3, Oxidation Reduction Potential -->
#     <OxidationReductionPotentialSensor SensorID="41" >
#       <SerialNumber>0363</SerialNumber>
#       <CalibrationDate>15-Apr-19</CalibrationDate>
#       <B>2.499480</B>
#       <M>-0.496195</M>
#       <Offset>0.0</Offset>
#     </OxidationReductionPotentialSensor>
#   </sensor>
#   <sensor Channel="8" >
#     <!-- A/D voltage 4, Fluorometer, WET Labs ECO-AFL/FL -->
#     <FluoroWetlabECO_AFL_FL_Sensor SensorID="20" >
#       <SerialNumber>FLNTURT-2496</SerialNumber>
#       <CalibrationDate>08-May-2019</CalibrationDate>
#       <ScaleFactor>5.00000000e+001</ScaleFactor>
#       <!-- Dark output -->
#       <Vblank>0.0550</Vblank>
#     </FluoroWetlabECO_AFL_FL_Sensor>
#   </sensor>
#   <sensor Channel="9" >
#     <!-- A/D voltage 5, Turbidity Meter, WET Labs, ECO-NTU -->
#     <TurbidityMeter SensorID="67" >
#       <SerialNumber>FLNTURT-2496</SerialNumber>
#       <CalibrationDate>08-May-2019</CalibrationDate>
#       <ScaleFactor>189.000000</ScaleFactor>
#       <!-- Dark output -->
#       <DarkVoltage>0.071000</DarkVoltage>
#     </TurbidityMeter>
#   </sensor>
# </Sensors>
# datcnv_date = Oct 16 2019 16:53:53, 7.26.7.129 [datcnv_vars = 15]
# datcnv_in = C:\DATA\101619_fcr50_0002.hex C:\DATA\SBE19plusV2_7809.xmlcon
# datcnv_skipover = 0
# datcnv_ox_hysteresis_correction = yes
# datcnv_ox_tau_correction = yes
# filter_date = Oct 16 2019 16:54:29, 7.26.7.129
# filter_in = C:\DATA\101619_fcr50_0002.cnv
# filter_low_pass_tc_A = 0.030
# filter_low_pass_tc_B = 0.150
# filter_low_pass_A_vars = sbeox0ML/L prdM prdE tv290C density00
# filter_low_pass_B_vars = depFM dz/dtM sbeox0PS specc c0uS/cm flECO-AFL ph orp par/sat/log turbWETntu0
# alignctd_date = Oct 16 2019 16:54:53, 7.26.7.129
# alignctd_in = C:\DATA\101619_fcr50_0002.cnv
# alignctd_adv = dz/dtM 1.000, sbeox0PS 1.000, specc 1.000, c0uS/cm 1.000, flECO-AFL 1.000, ph 1.000, orp 1.000, turbWETntu0 1.000                                                                                                   
# file_type = ascii
*END*
     -0.387      0.105     6.3956     95.114     40.477  34.244969     1.4892      8.216   277.1245 4.3936e+02     9.8672     -0.393     -0.570    17.1389   998.7684 0.0000e+00
     -0.348      0.141     6.3879     95.369     40.425  34.210759     1.4996      8.212   275.8400 4.5027e+02     9.7136     -0.341     -0.495    17.1892   998.7598 0.0000e+00
     -0.301      0.171     6.3845     95.717     40.389  34.182206     1.5096      8.201   274.7737 4.5625e+02     9.6556     -0.295     -0.427    17.2391   998.7511 0.0000e+00
     -0.249      0.187     6.3842     96.150     40.355  34.153600     1.6013      8.186   273.8683 4.1665e+02     9.6246     -0.252     -0.366    17.2747   998.7451 0.0000e+00
     -0.186      0.184     6.3875     96.663     40.317  34.118748     1.7853      8.171   272.9812 3.3090e+02     9.6331     -0.180     -0.261    17.3039   998.7402 0.0000e+00
     -0.126      0.163     6.4055     97.234     40.277  34.078142     1.8955      8.156   272.2211 2.6628e+02     9.6602     -0.116     -0.168    17.3124   998.7390 0.0000e+00
     -0.083      0.133     6.4287     97.909     40.248  34.043415     1.9199      8.141   271.4746 2.4240e+02     9.6578     -0.078     -0.112    17.3123   998.7392 0.0000e+00
     -0.056      0.098     6.4570     98.585     40.232  34.016184     1.9680      8.124   270.6666 2.3145e+02     9.5711     -0.051     -0.073    17.3135   998.7391 0.0000e+00
     -0.043      0.063     6.4939     98.708     40.229  34.002738     2.0435      8.108   269.8518 2.2755e+02     9.4969     -0.038     -0.055    17.3095   998.7399 0.0000e+00
     -0.041      0.035     6.5312     97.603     40.239  34.007758     2.0950      8.094   269.1080 2.3119e+02     9.5142     -0.038     -0.056    17.3035   998.7409 0.0000e+00
     -0.041      0.016     6.5764     95.065     40.244  34.013411     2.1140      8.081   268.5568 2.3661e+02     9.4855     -0.041     -0.060    17.2909   998.7431 0.0000e+00
     -0.038      0.003     6.6410     91.411     40.232  34.007631     2.0996      8.069   268.0910 2.3787e+02     9.2481     -0.038     -0.055    17.2692   998.7469 0.0000e+00
     -0.035     -0.003     6.6718     87.149     40.219  34.001340     2.0601      8.058   267.6066 2.3995e+02     8.9384     -0.032     -0.047    17.2537   998.7497 0.0000e+00
     -0.036     -0.006     6.6026     82.749     40.214  34.000820     2.0436      8.045   267.0885 2.4251e+02     8.8205     -0.033     -0.048    17.2494   998.7505 0.0000e+00
     -0.042     -0.007     6.4211     78.614     40.211  34.001340     2.0480      8.034   266.4723 2.4389e+02     8.8393     -0.042     -0.060    17.2538   998.7496 0.0000e+00
     -0.047     -0.008     6.1614     75.069     40.218  34.007639     2.0784      8.025   265.8347 2.4756e+02     8.9361     -0.048     -0.070    17.2607   998.7485 0.0000e+00
     -0.050     -0.008     5.8635     72.368     40.225  34.013522     2.1334      8.015   265.3162 2.4677e+02     9.1388     -0.049     -0.070    17.2660   998.7475 0.0000e+00
     -0.050     -0.006     5.5573     70.643     40.217  34.009002     2.1579      8.006   264.9348 2.4249e+02     9.2585     -0.050     -0.072    17.2709   998.7466 0.0000e+00
     -0.049     -0.002     5.2715     69.782     40.221  34.016455     2.1583      7.997   264.5783 2.4032e+02     9.2692     -0.048     -0.070    17.2757   998.7457 0.0000e+00
     -0.049      0.000     5.0273     69.466     40.245  34.040177     2.1729      7.989   264.1902 2.3759e+02     9.5302     -0.048     -0.069    17.2751   998.7458 0.0000e+00
     -0.049 3.6569e-07     4.8416     69.408     40.245  34.041955     2.2041      7.983   263.7690 2.3773e+02    10.0217     -0.049     -0.071    17.2732   998.7463 0.0000e+00
     -0.049      0.000     4.7274     69.401     40.239  34.037964     2.2235      7.977   263.2716 2.4183e+02    10.2960     -0.048     -0.070    17.2771   998.7455 0.0000e+00
     -0.049      0.000     4.6795     69.350     40.259  34.055386     2.2175      7.971   262.7359 2.4304e+02    10.3565     -0.048     -0.071    17.2827   998.7445 0.0000e+00
     -0.049      0.001     4.6635     69.293     40.266  34.062215     2.2000      7.964   262.1966 2.4339e+02    10.2610     -0.049     -0.070    17.2869   998.7438 0.0000e+00
     -0.049      0.001     4.6645     69.242     40.260  34.057062     2.1770      7.958   261.7408 2.4659e+02    10.0269     -0.048     -0.069    17.2896   998.7433 0.0000e+00
     -0.049      0.001     4.6674     69.207     40.260  34.056541     2.1657      7.953   261.3551 2.4874e+02     9.9177     -0.048     -0.070    17.2906   998.7431 0.0000e+00
     -0.048      0.001     4.6602     69.272     40.259  34.055916     2.1753      7.948   260.9756 2.4737e+02     9.9568     -0.048     -0.069    17.2913   998.7430 0.0000e+00
     -0.048      0.001     4.6572     69.501     40.252  34.049503     2.1808      7.943   260.6796 2.4410e+02     9.9757     -0.047     -0.068    17.2919   998.7429 0.0000e+00
     -0.047      0.001     4.6545     69.907     40.243  34.042474     2.1887      7.938   260.4422 2.4332e+02     9.8839     -0.046     -0.067    17.2919   998.7429 0.0000e+00
     -0.047      0.001     4.6487     70.435     40.233  34.034397     2.2187      7.933   260.1702 2.4476e+02     9.7317     -0.047     -0.067    17.2917   998.7429 0.0000e+00
     -0.047      0.002     4.6519     70.959     40.209  34.015311     2.2403      7.931   259.7999 2.4249e+02     9.6432     -0.046     -0.067    17.2914   998.7430 0.0000e+00
     -0.047      0.003     4.6671     71.407     40.193  34.002098     2.2423      7.927   259.4068 2.3836e+02     9.6652     -0.046     -0.066    17.2911   998.7431 0.0000e+00
     -0.047      0.005     4.6945     71.731     40.193  34.001577     2.2244      7.922   259.1174 2.3701e+02     9.7030     -0.047     -0.068    17.2914   998.7430 0.0000e+00
     -0.046      0.006     4.7350     71.856     40.202  34.009010     2.1886      7.919   258.8810 2.3663e+02     9.6743     -0.045     -0.066    17.2926   998.7427 0.0000e+00
     -0.043      0.005     4.7709     71.771     40.224  34.028503     2.1738      7.916   258.6137 2.3203e+02     9.6454     -0.043     -0.061    17.2939   998.7425 0.0000e+00
     -0.039      0.002     4.8014     71.527     40.244  34.046874     2.1761      7.911   258.2956 2.2486e+02     9.6490     -0.039     -0.056    17.2941   998.7425 0.0000e+00
     -0.037     -0.001     4.8262     71.163     40.236  34.040736     2.1722      7.905   258.1316 2.2772e+02     9.4550     -0.035     -0.050    17.2938   998.7426 0.0000e+00
     -0.038     -0.006     4.8348     70.741     40.214  34.017753     2.1704      7.900   258.1796 2.3773e+02     9.0374     -0.036     -0.051    17.2938   998.7426 0.0000e+00
     -0.043     -0.011     4.8267     70.320     40.229  34.022851     2.1715      7.894   258.0156 2.3955e+02     8.7948     -0.043     -0.062    17.2950   998.7424 0.0000e+00
     -0.047     -0.013     4.8099     69.861     40.254  34.038898     2.1685      7.885   257.6973 2.4186e+02     8.7826     -0.047     -0.068    17.2967   998.7420 0.0000e+00
     -0.051     -0.011     4.7842     69.351     40.236  34.021371     2.1768      7.871   257.6012 2.5572e+02     8.8566     -0.048     -0.069    17.2986   998.7417 0.0000e+00
     -0.057     -0.006     4.7529     68.835     40.218  34.001330     2.2116      7.851   257.6273 2.7309e+02     8.9686     -0.055     -0.079    17.2947   998.7424 0.0000e+00
     -0.062     -0.002     4.7289     68.327     40.209  33.986973     2.2345      7.829   257.4965 2.7216e+02     8.9898     -0.065     -0.093    17.2813   998.7446 0.0000e+00
     -0.059      0.001     4.6992     67.831     40.198  33.974705     2.2282      7.815   257.2249 2.4713e+02     8.9497     -0.061     -0.088    17.2725   998.7462 0.0000e+00
     -0.051      0.004     4.6623     67.334     40.200  33.979925     2.2219      7.810   257.0104 2.3254e+02     8.9089     -0.048     -0.069    17.2744   998.7460 0.0000e+00
     -0.046      0.007     4.6285     66.828     40.202  33.986629     2.2273      7.806   256.8828 2.4634e+02     8.8577     -0.042     -0.061    17.2695   998.7469 0.0000e+00
     -0.049      0.009     4.5956     66.405     40.205  33.992294     2.2331      7.802   256.8001 2.5988e+02     8.8222     -0.048     -0.070    17.2553   998.7494 0.0000e+00
     -0.052      0.008     4.5623     66.150     40.198  33.984965     2.2321      7.798   256.6995 2.4898e+02     8.7751     -0.054     -0.078    17.2512   998.7500 0.0000e+00
     -0.049      0.006     4.5302     66.002     40.173  33.961471     2.2316      7.793   256.6123 2.2938e+02     8.7135     -0.050     -0.072    17.2585   998.7487 0.0000e+00
     -0.044      0.005     4.4920     65.892     40.174  33.962096     2.2094      7.788   256.5193 2.1928e+02     8.6676     -0.041     -0.060    17.2672   998.7472 0.0000e+00
     -0.040      0.005     4.4596     65.807     40.208  33.992511     2.1632      7.782   256.2628 2.1880e+02     8.6459     -0.037     -0.054    17.2713   998.7466 0.0000e+00
     -0.040      0.004     4.4461     65.757     40.227  34.011898     2.1326      7.776   256.0068 2.2603e+02     8.6481     -0.038     -0.055    17.2683   998.7471 0.0000e+00
     -0.041      0.003     4.4382     65.763     40.217  34.006118     2.1168      7.771   255.9196 2.3458e+02     8.6290     -0.040     -0.058    17.2640   998.7479 0.0000e+00
     -0.041      0.002     4.4308     65.846     40.191  33.986095     2.1028      7.767   255.8109 2.3972e+02     8.6768     -0.042     -0.060    17.2635   998.7479 0.0000e+00
     -0.041      0.002     4.4244     65.982     40.160  33.960200     2.1013      7.763   255.7244 2.4364e+02     8.8662     -0.042     -0.061    17.2662   998.7475 0.0000e+00
     -0.039      0.002     4.4204     66.113     40.145  33.946884     2.1072      7.759   255.7348 2.4399e+02     9.0172     -0.039     -0.056    17.2710   998.7466 0.0000e+00
     -0.037      0.001     4.4193     66.198     40.151  33.952019     2.1050      7.755   255.5928 2.3890e+02     9.0285     -0.036     -0.052    17.2750   998.7459 0.0000e+00
     -0.036      0.000     4.4254     66.214     40.159  33.958817     2.0837      7.750   255.4690 2.3895e+02     8.9040     -0.035     -0.051    17.2765   998.7457 0.0000e+00
     -0.036     -0.002     4.4365     66.157     40.166  33.965616     2.0490      7.746   255.5287 2.4915e+02     8.6915     -0.035     -0.050    17.2770   998.7456 0.0000e+00
     -0.038     -0.005     4.4459     66.027     40.173  33.970761     2.0415      7.743   255.4551 2.5574e+02     8.5569     -0.037     -0.054    17.2764   998.7457 0.0000e+00
     -0.042     -0.007     4.4526     65.847     40.160  33.957557     2.0525      7.738   255.2666 2.5039e+02     8.5224     -0.042     -0.060    17.2752   998.7459 0.0000e+00
     -0.044     -0.009     4.4534     65.657     40.137  33.932901     2.0440      7.733   255.2289 2.4233e+02     8.5032     -0.044     -0.063    17.2754   998.7458 0.0000e+00
     -0.045     -0.010     4.4495     65.477     40.135  33.926498     2.0339      7.728   255.2578 2.3755e+02     8.4890     -0.044     -0.063    17.2774   998.7454 0.0000e+00
