* Sea-Bird SBE19plus  Data File:
* FileName = C:\DATA\101619_fcr50_0003.hex
* Software version 2.8.0.119 SB_Terminal.dll
* Temperature SN = 7809
* Conductivity SN = 7809
* System UpLoad Time = Oct 16 2019 16:53:09
* <ApplicationData>
* <Seaterm232>
* <SoftwareVersion>2.8.0.119</SoftwareVersion>
* <BuildDate>07-Nov-2018</BuildDate>
* </Seaterm232>
* </ApplicationData>
* cast   3 16 Oct 2019 11:49:56 samples 852 to 1569, avg = 1, stop = mag switch
# nquan = 16
# nvalues = 614                         
# units = specified
# name 0 = depFM: Depth [fresh water, m]
# name 1 = dz/dtM: Descent Rate [m/s]
# name 2 = sbeox0ML/L: Oxygen, SBE 43 [ml/l]
# name 3 = sbeox0PS: Oxygen, SBE 43 [% saturation]
# name 4 = specc: Specific Conductance [uS/cm]
# name 5 = c0uS/cm: Conductivity [uS/cm]
# name 6 = flECO-AFL: Fluorescence, WET Labs ECO-AFL/FL [mg/m^3]
# name 7 = ph: pH
# name 8 = orp: Oxidation Reduction Potential [mV]
# name 9 = par/sat/log: PAR/Logarithmic, Satlantic
# name 10 = turbWETntu0: Turbidity, WET Labs ECO [NTU]
# name 11 = prdM: Pressure, Strain Gauge [db]
# name 12 = prdE: Pressure, Strain Gauge [psi]
# name 13 = tv290C: Temperature [ITS-90, deg C]
# name 14 = density00: Density [density, kg/m^3]
# name 15 = flag:  0.000e+00
# span 0 =     -0.604,      5.342       
# span 1 =     -0.077,      0.164       
# span 2 =    -0.4874,     6.7015       
# span 3 =     -6.879,     99.448       
# span 4 =     39.786,     99.971       
# span 5 =  33.541348,  82.094930       
# span 6 =    -0.0007,     3.0208       
# span 7 =      6.521,      7.954       
# span 8 =   112.9110,   241.0961       
# span 9 = 1.2363e-01, 4.3965e+02       
# span 10 =     2.2049,    26.1990      
# span 11 =     -0.600,      5.240      
# span 12 =     -0.870,      7.600      
# span 13 =    13.3135,    17.3416      
# span 14 =   998.7341,   999.3872      
# span 15 = 0.0000e+00, 0.0000e+00      
# interval = seconds: 0.25
# start_time = Oct 16 2019 11:49:56 [Instrument's time stamp, header]
# bad_flag = -9.990e-29
# <Sensors count="9" >
#   <sensor Channel="1" >
#     <!-- Count, Temperature -->
#     <TemperatureSensor SensorID="58" >
#       <SerialNumber>7809</SerialNumber>
#       <CalibrationDate>24-Mar-19</CalibrationDate>
#       <A0>1.21792325e-003</A0>
#       <A1>2.81669265e-004</A1>
#       <A2>-1.60333336e-006</A2>
#       <A3>1.98414625e-007</A3>
#       <Slope>1.00000000</Slope>
#       <Offset>0.0000</Offset>
#     </TemperatureSensor>
#   </sensor>
#   <sensor Channel="2" >
#     <!-- Frequency 0, Conductivity -->
#     <ConductivitySensor SensorID="3" >
#       <SerialNumber>7809</SerialNumber>
#       <CalibrationDate>24-Mar-19</CalibrationDate>
#       <UseG_J>1</UseG_J>
#       <!-- Cell const and series R are applicable only for wide range sensors. -->
#       <SeriesR>0.0000</SeriesR>
#       <CellConst>2000.0000</CellConst>
#       <ConductivityType>0</ConductivityType>
#       <Coefficients equation="0" >
#         <A>0.00000000e+000</A>
#         <B>0.00000000e+000</B>
#         <C>0.00000000e+000</C>
#         <D>0.00000000e+000</D>
#         <M>0.0</M>
#         <CPcor>-9.57000000e-008</CPcor>
#       </Coefficients>
#       <Coefficients equation="1" >
#         <G>-1.00589325e+000</G>
#         <H>1.26816302e-001</H>
#         <I>-1.51560448e-004</I>
#         <J>2.67137274e-005</J>
#         <CPcor>-9.57000000e-008</CPcor>
#         <CTcor>3.2500e-006</CTcor>
#         <!-- WBOTC not applicable unless ConductivityType = 1. -->
#         <WBOTC>0.00000000e+000</WBOTC>
#       </Coefficients>
#       <Slope>1.00000000</Slope>
#       <Offset>0.00000</Offset>
#     </ConductivitySensor>
#   </sensor>
#   <sensor Channel="3" >
#     <!-- Count, Pressure, Strain Gauge -->
#     <PressureSensor SensorID="46" >
#       <SerialNumber>7809</SerialNumber>
#       <CalibrationDate>11-Mar-19</CalibrationDate>
#       <PA0>4.56561833e-002</PA0>
#       <PA1>4.85095118e-004</PA1>
#       <PA2>-2.88327090e-012</PA2>
#       <PTEMPA0>-5.48784562e+001</PTEMPA0>
#       <PTEMPA1>5.53756816e+001</PTEMPA1>
#       <PTEMPA2>-5.86727098e-001</PTEMPA2>
#       <PTCA0>5.25246745e+005</PTCA0>
#       <PTCA1>1.22304214e+001</PTCA1>
#       <PTCA2>-3.56745036e-001</PTCA2>
#       <PTCB0>2.51668750e+001</PTCB0>
#       <PTCB1>3.75000000e-004</PTCB1>
#       <PTCB2>0.00000000e+000</PTCB2>
#       <Offset>0.000000</Offset>
#     </PressureSensor>
#   </sensor>
#   <sensor Channel="4" >
#     <!-- A/D voltage 0, Oxygen, SBE 43 -->
#     <OxygenSensor SensorID="38" >
#       <SerialNumber>0434</SerialNumber>
#       <CalibrationDate>13-Apr-19</CalibrationDate>
#       <Use2007Equation>1</Use2007Equation>
#       <CalibrationCoefficients equation="0" >
#         <!-- Coefficients for Owens-Millard equation. -->
#         <Boc>0.0000</Boc>
#         <Soc>0.0000e+000</Soc>
#         <offset>0.0000</offset>
#         <Pcor>0.00e+000</Pcor>
#         <Tcor>0.0000</Tcor>
#         <Tau>0.0</Tau>
#       </CalibrationCoefficients>
#       <CalibrationCoefficients equation="1" >
#         <!-- Coefficients for Sea-Bird equation - SBE calibration in 2007 and later. -->
#         <Soc>4.2007e-001</Soc>
#         <offset>-0.6109</offset>
#         <A>-4.3656e-003</A>
#         <B> 1.7017e-004</B>
#         <C>-2.5341e-006</C>
#         <D0> 2.5826e+000</D0>
#         <D1> 1.92634e-004</D1>
#         <D2>-4.64803e-002</D2>
#         <E> 3.6000e-002</E>
#         <Tau20> 1.1800</Tau20>
#         <H1>-3.3000e-002</H1>
#         <H2> 5.0000e+003</H2>
#         <H3> 1.4500e+003</H3>
#       </CalibrationCoefficients>
#     </OxygenSensor>
#   </sensor>
#   <sensor Channel="5" >
#     <!-- A/D voltage 1, PAR/Logarithmic, Satlantic -->
#     <PARLog_SatlanticSensor SensorID="76" >
#       <SerialNumber>1122</SerialNumber>
#       <CalibrationDate>08-May-2019</CalibrationDate>
#       <a0>9.7456e-001</a0>
#       <a1>8.1640e-001</a1>
#       <Im>1.3589e+000</Im>
#       <Multiplier>1.0000e+000</Multiplier>
#     </PARLog_SatlanticSensor>
#   </sensor>
#   <sensor Channel="6" >
#     <!-- A/D voltage 2, pH -->
#     <pH_Sensor SensorID="43" >
#       <SerialNumber>0363</SerialNumber>
#       <CalibrationDate>15-Apr-19</CalibrationDate>
#       <Slope>4.5952</Slope>
#       <Offset>2.5370</Offset>
#     </pH_Sensor>
#   </sensor>
#   <sensor Channel="7" >
#     <!-- A/D voltage 3, Oxidation Reduction Potential -->
#     <OxidationReductionPotentialSensor SensorID="41" >
#       <SerialNumber>0363</SerialNumber>
#       <CalibrationDate>15-Apr-19</CalibrationDate>
#       <B>2.499480</B>
#       <M>-0.496195</M>
#       <Offset>0.0</Offset>
#     </OxidationReductionPotentialSensor>
#   </sensor>
#   <sensor Channel="8" >
#     <!-- A/D voltage 4, Fluorometer, WET Labs ECO-AFL/FL -->
#     <FluoroWetlabECO_AFL_FL_Sensor SensorID="20" >
#       <SerialNumber>FLNTURT-2496</SerialNumber>
#       <CalibrationDate>08-May-2019</CalibrationDate>
#       <ScaleFactor>5.00000000e+001</ScaleFactor>
#       <!-- Dark output -->
#       <Vblank>0.0550</Vblank>
#     </FluoroWetlabECO_AFL_FL_Sensor>
#   </sensor>
#   <sensor Channel="9" >
#     <!-- A/D voltage 5, Turbidity Meter, WET Labs, ECO-NTU -->
#     <TurbidityMeter SensorID="67" >
#       <SerialNumber>FLNTURT-2496</SerialNumber>
#       <CalibrationDate>08-May-2019</CalibrationDate>
#       <ScaleFactor>189.000000</ScaleFactor>
#       <!-- Dark output -->
#       <DarkVoltage>0.071000</DarkVoltage>
#     </TurbidityMeter>
#   </sensor>
# </Sensors>
# datcnv_date = Oct 16 2019 16:53:54, 7.26.7.129 [datcnv_vars = 15]
# datcnv_in = C:\DATA\101619_fcr50_0003.hex C:\DATA\SBE19plusV2_7809.xmlcon
# datcnv_skipover = 0
# datcnv_ox_hysteresis_correction = yes
# datcnv_ox_tau_correction = yes
# filter_date = Oct 16 2019 16:54:29, 7.26.7.129
# filter_in = C:\DATA\101619_fcr50_0003.cnv
# filter_low_pass_tc_A = 0.030
# filter_low_pass_tc_B = 0.150
# filter_low_pass_A_vars = sbeox0ML/L prdM prdE tv290C density00
# filter_low_pass_B_vars = depFM dz/dtM sbeox0PS specc c0uS/cm flECO-AFL ph orp par/sat/log turbWETntu0
# alignctd_date = Oct 16 2019 16:54:53, 7.26.7.129
# alignctd_in = C:\DATA\101619_fcr50_0003.cnv
# alignctd_adv = dz/dtM 1.000, sbeox0PS 1.000, specc 1.000, c0uS/cm 1.000, flECO-AFL 1.000, ph 1.000, orp 1.000, turbWETntu0 1.000                                                                                                   
# file_type = ascii
*END*
     -0.604      0.062     6.5547     95.166     40.117  33.632129    -0.0007      7.711   225.4784 3.7136e+02     2.2049     -0.600     -0.870    16.1770   998.9249 0.0000e+00
     -0.581      0.081     6.5109     95.167     40.127  33.701738     0.0010      7.796   226.9734 3.7306e+02     2.2933     -0.571     -0.829    16.4736   998.8798 0.0000e+00
     -0.551      0.096     6.4775     95.180     40.081  33.718733     0.0253      7.851   227.9770 3.7851e+02     2.4980     -0.540     -0.784    16.7079   998.8422 0.0000e+00
     -0.519      0.106     6.4601     95.213     40.011  33.710749     0.4489      7.889   228.4931 3.8500e+02     4.5156     -0.510     -0.739    16.8216   998.8225 0.0000e+00
     -0.488      0.110     6.4448     95.297     39.989  33.732195     1.2474      7.914   228.3952 3.8875e+02     8.1725     -0.478     -0.692    16.9247   998.8051 0.0000e+00
     -0.460      0.107     6.4364     95.426     40.019  33.787688     1.6861      7.929   227.3949 3.9206e+02    10.1388     -0.451     -0.653    16.9896   998.7938 0.0000e+00
     -0.435      0.102     6.4277     95.579     40.021  33.810565     1.7307      7.938   226.1215 3.9863e+02    10.2982     -0.427     -0.618    17.0620   998.7815 0.0000e+00
     -0.410      0.097     6.4197     95.756     40.013  33.818430     1.7599      7.944   225.2156 4.0722e+02    10.2309     -0.401     -0.582    17.1276   998.7701 0.0000e+00
     -0.386      0.092     6.4188     95.944     40.003  33.819341     1.7964      7.949   224.1851 4.1538e+02    10.0466     -0.378     -0.549    17.1783   998.7614 0.0000e+00
     -0.363      0.088     6.4242     96.136     40.001  33.821584     1.8004      7.953   222.7825 4.2316e+02     9.9380     -0.357     -0.518    17.2133   998.7553 0.0000e+00
     -0.340      0.094     6.4296     96.327     40.029  33.845549     1.7902      7.954   220.3028 4.3069e+02     9.9326     -0.332     -0.483    17.2404   998.7506 0.0000e+00
     -0.320      0.114     6.4405     96.502     39.967  33.791782     1.8202      7.949   218.2939 4.3721e+02     9.9815     -0.312     -0.453    17.2571   998.7477 0.0000e+00
     -0.302      0.139     6.4515     96.679     39.838  33.679208     1.8775      7.941   219.2285 4.3965e+02    10.1031     -0.296     -0.429    17.2687   998.7457 0.0000e+00
     -0.278      0.158     6.4638     96.928     39.795  33.626780     1.9110      7.931   220.5905 4.2625e+02    10.1585     -0.285     -0.414    17.2723   998.7451 0.0000e+00
     -0.225      0.164     6.4774     97.298     39.805  33.602122     1.9215      7.920   220.6506 3.6511e+02    10.0939     -0.236     -0.342    17.2739   998.7452 0.0000e+00
     -0.145      0.159     6.4891     97.764     39.815  33.571420     1.9433      7.906   220.3850 2.7324e+02     9.8128     -0.130     -0.188    17.2711   998.7462 0.0000e+00
     -0.084      0.142     6.4990     98.243     39.849  33.572833     1.9748      7.893   220.1326 2.2303e+02     9.3490     -0.067     -0.097    17.2709   998.7464 0.0000e+00
     -0.059      0.113     6.5155     98.660     39.915  33.619163     1.9904      7.880   219.9231 2.1425e+02     9.0744     -0.054     -0.078    17.2595   998.7484 0.0000e+00
     -0.050      0.074     6.5488     98.996     39.986  33.687342     1.9930      7.868   219.6579 2.1127e+02     9.0157     -0.047     -0.068    17.2054   998.7580 0.0000e+00
     -0.046      0.039     6.5900     99.233     40.051  33.762547     1.9895      7.856   219.4213 2.1222e+02     8.9352     -0.046     -0.067    17.1481   998.7681 0.0000e+00
     -0.043      0.018     6.6295     99.366     40.103  33.830371     1.9823      7.845   219.1275 2.1301e+02     8.8207     -0.042     -0.061    17.1137   998.7741 0.0000e+00
     -0.042      0.010     6.6593     99.448     40.126  33.872778     1.9844      7.837   218.8589 2.1154e+02     8.7793     -0.040     -0.058    17.1011   998.7764 0.0000e+00
     -0.041      0.010     6.6798     99.273     40.129  33.894525     1.9886      7.828   218.7550 2.1075e+02     8.7957     -0.041     -0.060    17.1162   998.7738 0.0000e+00
     -0.039      0.013     6.6941     98.303     40.120  33.902946     1.9897      7.819   218.7305 2.1172e+02     8.8218     -0.038     -0.055    17.1443   998.7689 0.0000e+00
     -0.036      0.016     6.6941     96.173     40.116  33.911145     2.0238      7.812   218.6492 2.1252e+02     9.0295     -0.034     -0.050    17.1750   998.7636 0.0000e+00
     -0.032      0.018     6.6984     92.937     40.128  33.930200     2.0892      7.805   218.3744 2.0837e+02     9.4387     -0.034     -0.049    17.2048   998.7583 0.0000e+00
     -0.026      0.019     6.7015     88.957     40.136  33.942958     2.1221      7.799   218.1616 2.0094e+02     9.7055     -0.026     -0.039    17.2301   998.7539 0.0000e+00
     -0.016      0.019     6.6425     84.680     40.126  33.938475     2.1173      7.791   218.1411 1.9583e+02     9.7643     -0.015     -0.021    17.2492   998.7506 0.0000e+00
     -0.010      0.020     6.4952     80.489     40.049  33.875997     2.1100      7.784   218.0396 1.9452e+02     9.8556     -0.008     -0.012    17.2636   998.7480 0.0000e+00
     -0.008      0.022     6.2664     76.765     39.909  33.758737     2.1026      7.776   217.7955 1.9584e+02    10.0230     -0.007     -0.010    17.2744   998.7462 0.0000e+00
     -0.008      0.025     5.9862     73.868     39.870  33.726536     2.0972      7.767   217.5991 1.9449e+02    10.1161     -0.009     -0.013    17.2816   998.7450 0.0000e+00
     -0.003      0.030     5.6902     71.950     39.960  33.803973     2.1052      7.758   216.6981 1.8609e+02    10.1290     -0.007     -0.011    17.2865   998.7440 0.0000e+00
      0.008      0.040     5.3995     70.876     40.038  33.869985     2.0872      7.748   214.6444 1.7514e+02    10.1144      0.007      0.010    17.2900   998.7435 0.0000e+00
      0.021      0.054     5.1389     70.343     40.063  33.890034     2.0267      7.736   213.0730 1.6629e+02    10.0703      0.023      0.032    17.2902   998.7434 0.0000e+00
      0.032      0.068     4.9402     70.051     40.025  33.855983     1.9888      7.724   212.5831 1.5239e+02    10.0547      0.030      0.043    17.2908   998.7432 0.0000e+00
      0.050      0.075     4.8153     69.828     39.931  33.775593     1.9938      7.713   212.5076 1.2697e+02    10.0557      0.045      0.066    17.2935   998.7429 0.0000e+00
      0.075      0.069     4.7506     69.590     39.893  33.743101     2.0168      7.705   213.9657 1.0011e+02     9.7559      0.073      0.106    17.2945   998.7430 0.0000e+00
      0.104      0.049     4.7234     69.293     39.936  33.780441     2.0338      7.698   216.8772 8.2767e+01     9.1494      0.102      0.149    17.2928   998.7434 0.0000e+00
      0.129      0.018     4.7072     68.961     40.016  33.846286     2.0428      7.688   218.6289 7.6089e+01     8.8515      0.133      0.193    17.2901   998.7440 0.0000e+00
      0.137     -0.019     4.6940     68.689     40.091  33.904566     2.0571      7.677   218.8843 7.7931e+01     8.8740      0.145      0.210    17.2877   998.7444 0.0000e+00
      0.121     -0.051     4.6794     68.584     40.110  33.913911     2.0503      7.664   218.8473 8.6881e+01     8.8637      0.126      0.183    17.2881   998.7442 0.0000e+00
      0.084     -0.071     4.6587     68.697     40.093  33.895802     2.0122      7.653   218.7829 1.0241e+02     8.8254      0.087      0.125    17.2895   998.7439 0.0000e+00
      0.043     -0.077     4.6340     68.978     40.071  33.876011     1.9782      7.645   218.7086 1.1958e+02     8.7719      0.036      0.051    17.2876   998.7439 0.0000e+00
      0.016     -0.068     4.6134     69.345     40.056  33.865004     1.9678      7.637   218.6368 1.2989e+02     8.7412      0.006      0.009    17.2818   998.7449 0.0000e+00
      0.008     -0.050     4.6057     69.738     40.083  33.889651     1.9739      7.629   218.6026 1.3165e+02     8.7487      0.005      0.007    17.2714   998.7468 0.0000e+00
      0.008     -0.028     4.6157     70.094     40.115  33.920171     1.9822      7.621   218.6392 1.2920e+02     8.7644      0.009      0.011    17.2648   998.7479 0.0000e+00
      0.009     -0.011     4.6371     70.349     40.107  33.916691     1.9819      7.615   218.7359 1.2589e+02     8.7668      0.011      0.015    17.2649   998.7479 0.0000e+00
      0.008     -0.002     4.6624     70.477     40.097  33.911035     1.9794      7.610   218.7395 1.2056e+02     8.7455      0.008      0.012    17.2670   998.7475 0.0000e+00
      0.006      0.001     4.6899     70.450     40.100  33.915254     1.9856      7.605   218.6821 1.1345e+02     8.7695      0.005      0.007    17.2702   998.7470 0.0000e+00
      0.006      0.001     4.7159     70.266     40.085  33.904245     1.9965      7.600   218.6444 1.0948e+02     8.9910      0.005      0.008    17.2741   998.7463 0.0000e+00
      0.007      0.002     4.7323     69.969     40.083  33.904861     1.9989      7.595   218.5414 1.0931e+02     9.3250      0.006      0.009    17.2787   998.7454 0.0000e+00
      0.009      0.003     4.7414     69.579     40.102  33.922697     1.9889      7.590   218.4697 1.0953e+02     9.4329      0.009      0.013    17.2819   998.7449 0.0000e+00
      0.011      0.005     4.7403     69.166     40.108  33.929514     1.9794      7.584   218.4656 1.0846e+02     9.3786      0.011      0.016    17.2838   998.7445 0.0000e+00
      0.011      0.005     4.7251     68.844     40.100  33.923822     1.9962      7.579   218.4057 1.0773e+02     9.4542      0.010      0.015    17.2859   998.7442 0.0000e+00
      0.012      0.004     4.7057     68.661     40.092  33.917333     2.0363      7.575   218.3484 1.0747e+02     9.5940      0.011      0.016    17.2883   998.7437 0.0000e+00
      0.013      0.001     4.6779     68.600     40.091  33.914525     2.0563      7.570   218.3753 1.0810e+02     9.6274      0.014      0.019    17.2909   998.7433 0.0000e+00
      0.015     -0.007     4.6455     68.604     40.067  33.889867     2.0478      7.565   218.4715 1.0939e+02     9.6274      0.014      0.020    17.2932   998.7429 0.0000e+00
      0.015     -0.019     4.6235     68.617     40.052  33.873049     2.0128      7.558   218.5652 1.0913e+02     9.4303      0.016      0.023    17.2953   998.7426 0.0000e+00
      0.014     -0.034     4.6112     68.605     40.089  33.901573     1.9622      7.548   218.6480 1.1222e+02     8.9488      0.016      0.023    17.2971   998.7423 0.0000e+00
      0.006     -0.048     4.6088     68.547     40.108  33.917423     1.9372      7.538   218.6989 1.2139e+02     8.6235      0.009      0.014    17.2944   998.7428 0.0000e+00
     -0.013     -0.060     4.6116     68.457     40.058  33.874296     1.9277      7.528   218.7509 1.3085e+02     8.5442     -0.008     -0.012    17.2869   998.7439 0.0000e+00
     -0.039     -0.070     4.6131     68.326     40.002  33.824375     1.9085      7.517   218.8460 1.3881e+02     8.5470     -0.041     -0.059    17.2810   998.7448 0.0000e+00
     -0.063     -0.075     4.6140     68.102     40.000  33.821556     1.8867      7.506   218.8164 1.4596e+02     8.5922     -0.065     -0.095    17.2775   998.7454 0.0000e+00
