* Sea-Bird SBE19plus  Data File:
* FileName = C:\DATA\102319_fcr_0004.hex
* Software version 2.8.0.119 SB_Terminal.dll
* Temperature SN = 7809
* Conductivity SN = 7809
* System UpLoad Time = Oct 23 2019 15:56:36
* <ApplicationData>
* <Seaterm232>
* <SoftwareVersion>2.8.0.119</SoftwareVersion>
* <BuildDate>07-Nov-2018</BuildDate>
* </Seaterm232>
* </ApplicationData>
* cast   4 23 Oct 2019 11:26:01 samples 1337 to 2371, avg = 1, stop = mag switch
# nquan = 16
# nvalues = 910                         
# units = specified
# name 0 = depFM: Depth [fresh water, m]
# name 1 = dz/dtM: Descent Rate [m/s]
# name 2 = sbeox0ML/L: Oxygen, SBE 43 [ml/l]
# name 3 = sbeox0PS: Oxygen, SBE 43 [% saturation]
# name 4 = specc: Specific Conductance [uS/cm]
# name 5 = c0uS/cm: Conductivity [uS/cm]
# name 6 = flECO-AFL: Fluorescence, WET Labs ECO-AFL/FL [mg/m^3]
# name 7 = ph: pH
# name 8 = orp: Oxidation Reduction Potential [mV]
# name 9 = par/sat/log: PAR/Logarithmic, Satlantic
# name 10 = turbWETntu0: Turbidity, WET Labs ECO [NTU]
# name 11 = prdM: Pressure, Strain Gauge [db]
# name 12 = prdE: Pressure, Strain Gauge [psi]
# name 13 = tv290C: Temperature [ITS-90, deg C]
# name 14 = density00: Density [density, kg/m^3]
# name 15 = flag:  0.000e+00
# span 0 =     -0.228,      6.494       
# span 1 =     -0.029,      0.167       
# span 2 =     2.8311,     7.0708       
# span 3 =     38.940,     99.788       
# span 4 =     40.572,     59.660       
# span 5 =  32.134448,  46.065626       
# span 6 =     0.2185,     3.5012       
# span 7 =      6.432,      7.490       
# span 8 =   281.9183,   318.5052       
# span 9 = 1.2357e-01, 1.2958e+03       
# span 10 =     4.6585,    14.5834      
# span 11 =     -0.238,      6.369      
# span 12 =     -0.346,      9.237      
# span 13 =    13.6002,    14.8982      
# span 14 =   999.1342,   999.3542      
# span 15 = 0.0000e+00, 0.0000e+00      
# interval = seconds: 0.25
# start_time = Oct 23 2019 11:26:01 [Instrument's time stamp, header]
# bad_flag = -9.990e-29
# <Sensors count="9" >
#   <sensor Channel="1" >
#     <!-- Count, Temperature -->
#     <TemperatureSensor SensorID="58" >
#       <SerialNumber>7809</SerialNumber>
#       <CalibrationDate>24-Mar-19</CalibrationDate>
#       <A0>1.21792325e-003</A0>
#       <A1>2.81669265e-004</A1>
#       <A2>-1.60333336e-006</A2>
#       <A3>1.98414625e-007</A3>
#       <Slope>1.00000000</Slope>
#       <Offset>0.0000</Offset>
#     </TemperatureSensor>
#   </sensor>
#   <sensor Channel="2" >
#     <!-- Frequency 0, Conductivity -->
#     <ConductivitySensor SensorID="3" >
#       <SerialNumber>7809</SerialNumber>
#       <CalibrationDate>24-Mar-19</CalibrationDate>
#       <UseG_J>1</UseG_J>
#       <!-- Cell const and series R are applicable only for wide range sensors. -->
#       <SeriesR>0.0000</SeriesR>
#       <CellConst>2000.0000</CellConst>
#       <ConductivityType>0</ConductivityType>
#       <Coefficients equation="0" >
#         <A>0.00000000e+000</A>
#         <B>0.00000000e+000</B>
#         <C>0.00000000e+000</C>
#         <D>0.00000000e+000</D>
#         <M>0.0</M>
#         <CPcor>-9.57000000e-008</CPcor>
#       </Coefficients>
#       <Coefficients equation="1" >
#         <G>-1.00589325e+000</G>
#         <H>1.26816302e-001</H>
#         <I>-1.51560448e-004</I>
#         <J>2.67137274e-005</J>
#         <CPcor>-9.57000000e-008</CPcor>
#         <CTcor>3.2500e-006</CTcor>
#         <!-- WBOTC not applicable unless ConductivityType = 1. -->
#         <WBOTC>0.00000000e+000</WBOTC>
#       </Coefficients>
#       <Slope>1.00000000</Slope>
#       <Offset>0.00000</Offset>
#     </ConductivitySensor>
#   </sensor>
#   <sensor Channel="3" >
#     <!-- Count, Pressure, Strain Gauge -->
#     <PressureSensor SensorID="46" >
#       <SerialNumber>7809</SerialNumber>
#       <CalibrationDate>11-Mar-19</CalibrationDate>
#       <PA0>4.56561833e-002</PA0>
#       <PA1>4.85095118e-004</PA1>
#       <PA2>-2.88327090e-012</PA2>
#       <PTEMPA0>-5.48784562e+001</PTEMPA0>
#       <PTEMPA1>5.53756816e+001</PTEMPA1>
#       <PTEMPA2>-5.86727098e-001</PTEMPA2>
#       <PTCA0>5.25246745e+005</PTCA0>
#       <PTCA1>1.22304214e+001</PTCA1>
#       <PTCA2>-3.56745036e-001</PTCA2>
#       <PTCB0>2.51668750e+001</PTCB0>
#       <PTCB1>3.75000000e-004</PTCB1>
#       <PTCB2>0.00000000e+000</PTCB2>
#       <Offset>0.000000</Offset>
#     </PressureSensor>
#   </sensor>
#   <sensor Channel="4" >
#     <!-- A/D voltage 0, Oxygen, SBE 43 -->
#     <OxygenSensor SensorID="38" >
#       <SerialNumber>0434</SerialNumber>
#       <CalibrationDate>13-Apr-19</CalibrationDate>
#       <Use2007Equation>1</Use2007Equation>
#       <CalibrationCoefficients equation="0" >
#         <!-- Coefficients for Owens-Millard equation. -->
#         <Boc>0.0000</Boc>
#         <Soc>0.0000e+000</Soc>
#         <offset>0.0000</offset>
#         <Pcor>0.00e+000</Pcor>
#         <Tcor>0.0000</Tcor>
#         <Tau>0.0</Tau>
#       </CalibrationCoefficients>
#       <CalibrationCoefficients equation="1" >
#         <!-- Coefficients for Sea-Bird equation - SBE calibration in 2007 and later. -->
#         <Soc>4.2007e-001</Soc>
#         <offset>-0.6109</offset>
#         <A>-4.3656e-003</A>
#         <B> 1.7017e-004</B>
#         <C>-2.5341e-006</C>
#         <D0> 2.5826e+000</D0>
#         <D1> 1.92634e-004</D1>
#         <D2>-4.64803e-002</D2>
#         <E> 3.6000e-002</E>
#         <Tau20> 1.1800</Tau20>
#         <H1>-3.3000e-002</H1>
#         <H2> 5.0000e+003</H2>
#         <H3> 1.4500e+003</H3>
#       </CalibrationCoefficients>
#     </OxygenSensor>
#   </sensor>
#   <sensor Channel="5" >
#     <!-- A/D voltage 1, PAR/Logarithmic, Satlantic -->
#     <PARLog_SatlanticSensor SensorID="76" >
#       <SerialNumber>1122</SerialNumber>
#       <CalibrationDate>08-May-2019</CalibrationDate>
#       <a0>9.7456e-001</a0>
#       <a1>8.1640e-001</a1>
#       <Im>1.3589e+000</Im>
#       <Multiplier>1.0000e+000</Multiplier>
#     </PARLog_SatlanticSensor>
#   </sensor>
#   <sensor Channel="6" >
#     <!-- A/D voltage 2, pH -->
#     <pH_Sensor SensorID="43" >
#       <SerialNumber>0363</SerialNumber>
#       <CalibrationDate>15-Apr-19</CalibrationDate>
#       <Slope>4.5952</Slope>
#       <Offset>2.5370</Offset>
#     </pH_Sensor>
#   </sensor>
#   <sensor Channel="7" >
#     <!-- A/D voltage 3, Oxidation Reduction Potential -->
#     <OxidationReductionPotentialSensor SensorID="41" >
#       <SerialNumber>0363</SerialNumber>
#       <CalibrationDate>15-Apr-19</CalibrationDate>
#       <B>2.499480</B>
#       <M>-0.496195</M>
#       <Offset>0.0</Offset>
#     </OxidationReductionPotentialSensor>
#   </sensor>
#   <sensor Channel="8" >
#     <!-- A/D voltage 4, Fluorometer, WET Labs ECO-AFL/FL -->
#     <FluoroWetlabECO_AFL_FL_Sensor SensorID="20" >
#       <SerialNumber>FLNTURT-2496</SerialNumber>
#       <CalibrationDate>08-May-2019</CalibrationDate>
#       <ScaleFactor>5.00000000e+001</ScaleFactor>
#       <!-- Dark output -->
#       <Vblank>0.0550</Vblank>
#     </FluoroWetlabECO_AFL_FL_Sensor>
#   </sensor>
#   <sensor Channel="9" >
#     <!-- A/D voltage 5, Turbidity Meter, WET Labs, ECO-NTU -->
#     <TurbidityMeter SensorID="67" >
#       <SerialNumber>FLNTURT-2496</SerialNumber>
#       <CalibrationDate>08-May-2019</CalibrationDate>
#       <ScaleFactor>189.000000</ScaleFactor>
#       <!-- Dark output -->
#       <DarkVoltage>0.071000</DarkVoltage>
#     </TurbidityMeter>
#   </sensor>
# </Sensors>
# datcnv_date = Oct 23 2019 16:06:17, 7.26.7.129 [datcnv_vars = 15]
# datcnv_in = C:\DATA\102319_fcr45.hex C:\DATA\SBE19plusV2_7809.xmlcon
# datcnv_skipover = 0
# datcnv_ox_hysteresis_correction = yes
# datcnv_ox_tau_correction = yes
# filter_date = Oct 23 2019 16:06:38, 7.26.7.129
# filter_in = C:\DATA\102319_fcr45.cnv
# filter_low_pass_tc_A = 0.030
# filter_low_pass_tc_B = 0.150
# filter_low_pass_A_vars = sbeox0ML/L prdM prdE tv290C density00
# filter_low_pass_B_vars = depFM dz/dtM sbeox0PS specc c0uS/cm flECO-AFL ph orp par/sat/log turbWETntu0
# alignctd_date = Oct 23 2019 16:06:56, 7.26.7.129
# alignctd_in = C:\DATA\102319_fcr45.cnv
# alignctd_adv = dz/dtM 1.000, sbeox0PS 1.000, specc 1.000, c0uS/cm 1.000, flECO-AFL 1.000, ph 1.000, orp 1.000, turbWETntu0 1.000                                                                                                   
# file_type = ascii
*END*
     -0.228      0.125     6.8502     96.904     40.674  32.427285     1.4871      7.487   318.5052 1.2724e+03     9.1178     -0.238     -0.346    14.7341   999.1573 0.0000e+00
     -0.182      0.154     6.8448     97.228     40.654  32.412192     1.4463      7.490   317.8872 1.2434e+03     9.2931     -0.189     -0.275    14.7844   999.1502 0.0000e+00
     -0.112      0.167     6.8390     97.670     40.671  32.423314     1.4404      7.486   316.8605 1.1954e+03     9.2802     -0.107     -0.154    14.8302   999.1438 0.0000e+00
     -0.045      0.162     6.8394     98.210     40.690  32.434842     1.4676      7.478   315.9857 1.1471e+03     9.1267     -0.035     -0.051    14.8540   999.1405 0.0000e+00
      0.003      0.137     6.8551     98.760     40.682  32.424655     1.5243      7.469   315.3125 1.0386e+03     8.9109      0.010      0.015    14.8635   999.1393 0.0000e+00
      0.030      0.101     6.8776     99.242     40.692  32.427058     1.5541      7.459   314.5710 9.2132e+02     8.7687      0.036      0.052    14.8600   999.1399 0.0000e+00
      0.040      0.063     6.9088     99.601     40.744  32.463888     1.5501      7.449   313.8175 9.2881e+02     8.6858      0.043      0.062    14.8569   999.1405 0.0000e+00
      0.039      0.033     6.9515     99.788     40.776  32.489178     1.5452      7.439   313.0847 9.4657e+02     8.6619      0.038      0.055    14.8528   999.1410 0.0000e+00
      0.038      0.016     6.9922     99.759     40.757  32.479002     1.5469      7.430   312.4215 8.9057e+02     8.7098      0.035      0.051    14.8485   999.1417 0.0000e+00
      0.040      0.008     7.0290     99.375     40.734  32.467787     1.5534      7.422   311.9080 9.4942e+02     8.7729      0.038      0.056    14.8409   999.1429 0.0000e+00
      0.045      0.006     7.0571     98.370     40.741  32.480497     1.5544      7.416   311.3510 1.1359e+03     8.7691      0.045      0.065    14.8328   999.1440 0.0000e+00
      0.048      0.006     7.0708     96.575     40.766  32.505766     1.5074      7.411   310.5907 1.2003e+03     8.7297      0.047      0.068    14.8332   999.1441 0.0000e+00
      0.048      0.007     7.0695     94.059     40.776  32.519476     1.4186      7.405   309.8557 1.1047e+03     8.7221      0.048      0.070    14.8412   999.1428 0.0000e+00
      0.048      0.009     7.0502     91.103     40.770  32.519353     1.3652      7.398   309.3472 1.0521e+03     8.7422      0.048      0.069    14.8502   999.1415 0.0000e+00
      0.047      0.012     6.9825     88.072     40.746  32.504280     1.3646      7.391   308.8302 1.1135e+03     8.7764      0.044      0.064    14.8583   999.1403 0.0000e+00
      0.049      0.015     6.8521     85.198     40.691  32.464153     1.3931      7.384   308.3374 1.1713e+03     8.7755      0.045      0.065    14.8652   999.1392 0.0000e+00
      0.056      0.014     6.6667     82.648     40.627  32.414957     1.4241      7.379   307.9491 1.1686e+03     8.7314      0.055      0.079    14.8719   999.1383 0.0000e+00
      0.065      0.008     6.4443     80.608     40.629  32.417151     1.4359      7.374   307.4911 1.1409e+03     8.7348      0.066      0.096    14.8785   999.1374 0.0000e+00
      0.072     -0.002     6.2253     79.145     40.720  32.490671     1.4402      7.367   307.1021 1.0478e+03     8.7835      0.072      0.105    14.8840   999.1366 0.0000e+00
      0.074     -0.014     6.0185     78.255     40.783  32.542354     1.4413      7.359   306.7729 8.8804e+02     8.7629      0.076      0.111    14.8885   999.1359 0.0000e+00
      0.067     -0.024     5.8308     77.857     40.771  32.534352     1.4326      7.351   306.3501 7.9502e+02     8.6824      0.070      0.102    14.8915   999.1353 0.0000e+00
      0.049     -0.029     5.6863     77.728     40.752  32.520847     1.4304      7.345   305.8618 8.5070e+02     8.5969      0.047      0.068    14.8910   999.1354 0.0000e+00
      0.032     -0.027     5.5833     77.689     40.733  32.505990     1.4318      7.339   305.4284 9.1655e+02     8.5484      0.027      0.038    14.8911   999.1353 0.0000e+00
      0.024     -0.020     5.5196     77.663     40.703  32.481649     1.4234      7.333   305.0680 8.3504e+02     8.5882      0.021      0.031    14.8938   999.1349 0.0000e+00
      0.023     -0.007     5.4997     77.560     40.703  32.480381     1.4338      7.327   304.6881 7.0089e+02     8.7500      0.022      0.032    14.8965   999.1346 0.0000e+00
      0.026      0.007     5.4949     77.397     40.718  32.490661     1.4701      7.321   304.3616 6.3192e+02     8.9317      0.025      0.037    14.8980   999.1343 0.0000e+00
      0.031      0.017     5.4918     77.297     40.707  32.479009     1.4985      7.315   304.1320 5.3947e+02     8.9826      0.028      0.041    14.8982   999.1342 0.0000e+00
      0.038      0.020     5.4945     77.321     40.696  32.466410     1.5076      7.308   303.8913 3.8282e+02     9.0051      0.037      0.053    14.8979   999.1343 0.0000e+00
      0.047      0.019     5.4868     77.461     40.701  32.465255     1.5105      7.301   303.6025 3.2605e+02     9.0723      0.047      0.069    14.8964   999.1346 0.0000e+00
      0.054      0.016     5.4705     77.702     40.710  32.465037     1.5075      7.296   303.2212 4.7670e+02     9.1396      0.054      0.079    14.8936   999.1350 0.0000e+00
      0.057      0.011     5.4631     78.021     40.718  32.463771     1.4979      7.292   302.8082 7.1705e+02     9.1961      0.057      0.082    14.8905   999.1355 0.0000e+00
      0.057      0.006     5.4658     78.388     40.709  32.449934     1.4894      7.290   302.3082 9.1205e+02     9.2313      0.056      0.082    14.8872   999.1360 0.0000e+00
      0.056      0.003     5.4765     78.745     40.686  32.424646     1.4747      7.288   300.7906 1.0554e+03     9.1398      0.054      0.079    14.8803   999.1370 0.0000e+00
      0.054      0.002     5.4957     79.022     40.678  32.411850     1.4506      7.285   297.4506 1.1140e+03     8.9421      0.053      0.077    14.8704   999.1385 0.0000e+00
      0.054      0.003     5.5198     79.200     40.697  32.422138     1.4321      7.282   293.8456 1.0922e+03     8.8398      0.053      0.077    14.8615   999.1398 0.0000e+00
      0.055      0.005     5.5482     79.311     40.703  32.422110     1.4325      7.280   292.1344 1.0828e+03     8.8208      0.054      0.078    14.8522   999.1412 0.0000e+00
      0.058      0.006     5.5769     79.397     40.695  32.411505     1.4471      7.277   291.7315 1.1001e+03     8.8101      0.057      0.082    14.8431   999.1425 0.0000e+00
      0.062      0.006     5.5979     79.473     40.710  32.420840     1.4437      7.273   291.2970 1.1091e+03     8.8094      0.060      0.087    14.8359   999.1436 0.0000e+00
      0.065      0.005     5.6099     79.524     40.697  32.408055     1.4253      7.268   290.7531 1.1155e+03     8.8115      0.065      0.094    14.8298   999.1446 0.0000e+00
      0.065      0.004     5.6175     79.554     40.669  32.383834     1.4243      7.262   290.2314 1.1297e+03     8.8028      0.065      0.094    14.8243   999.1454 0.0000e+00
      0.063      0.000     5.6233     79.541     40.669  32.381830     1.4584      7.255   289.7210 1.1291e+03     8.8018      0.060      0.088    14.8195   999.1461 0.0000e+00
      0.063     -0.006     5.6306     79.431     40.675  32.383825     1.5160      7.250   289.3145 1.1052e+03     8.7996      0.061      0.089    14.8158   999.1467 0.0000e+00
      0.065     -0.014     5.6334     79.215     40.709  32.407941     1.5487      7.246   289.1879 1.0894e+03     8.7764      0.064      0.094    14.8132   999.1471 0.0000e+00
      0.064     -0.020     5.6363     78.915     40.725  32.419573     1.5506      7.242   291.3733 1.1057e+03     8.7507      0.065      0.094    14.8113   999.1473 0.0000e+00
      0.057     -0.025     5.6383     78.592     40.699  32.397546     1.5393      7.238   293.5399 1.1431e+03     8.6205      0.058      0.084    14.8079   999.1478 0.0000e+00
      0.046     -0.028     5.6303     78.293     40.699  32.395457     1.5068      7.234   291.4655 1.2038e+03     8.4145      0.045      0.067    14.8033   999.1484 0.0000e+00
      0.031     -0.028     5.6156     78.023     40.700  32.394312     1.4693      7.231   289.2649 1.2616e+03     8.3237      0.029      0.043    14.8005   999.1488 0.0000e+00
      0.021     -0.024     5.5922     77.747     40.689  32.383702     1.4500      7.228   291.1085 1.2771e+03     8.3105      0.017      0.025    14.7992   999.1489 0.0000e+00
      0.018     -0.017     5.5683     77.423     40.703  32.394085     1.4472      7.226   295.1721 1.2743e+03     8.3210      0.016      0.024    14.7979   999.1492 0.0000e+00
      0.019     -0.008     5.5472     77.034     40.701  32.392940     1.4972      7.224   295.2056 1.2710e+03     8.6142      0.018      0.026    14.7956   999.1494 0.0000e+00
      0.019     -0.002     5.5295     76.589     40.670  32.369845     1.6031      7.219   290.8258 1.2764e+03     9.1356      0.019      0.028    14.7930   999.1498 0.0000e+00
      0.019      0.003     5.5119     76.125     40.666  32.368690     1.6705      7.215   288.3335 1.2846e+03     9.4137      0.019      0.027    14.7907   999.1502 0.0000e+00
      0.020      0.005     5.4888     75.690     40.677  32.378989     1.6781      7.212   290.3665 1.2771e+03     9.4201      0.019      0.028    14.7895   999.1504 0.0000e+00
      0.022      0.007     5.4617     75.324     40.660  32.367441     1.6867      7.210   295.1884 1.2700e+03     9.2458      0.022      0.032    14.7900   999.1503 0.0000e+00
      0.024      0.009     5.4283     75.040     40.645  32.355989     1.7141      7.207   296.2145 1.2717e+03     8.9456      0.024      0.034    14.7918   999.1500 0.0000e+00
      0.026      0.012     5.3942     74.825     40.661  32.367441     1.7402      7.202   294.3421 1.2757e+03     8.7724      0.025      0.036    14.7943   999.1497 0.0000e+00
      0.029      0.014     5.3616     74.617     40.678  32.378990     1.7502      7.199   296.2964 1.2796e+03     8.7566      0.027      0.039    14.7965   999.1494 0.0000e+00
      0.034      0.015     5.3355     74.347     40.667  32.368700     1.7489      7.196   299.0210 1.2941e+03     8.7880      0.032      0.047    14.7983   999.1491 0.0000e+00
      0.039      0.017     5.3152     74.011     40.667  32.369946     1.7514      7.193   299.4949 1.2958e+03     8.8237      0.039      0.057    14.8000   999.1489 0.0000e+00
      0.043      0.019     5.3016     73.597     40.696  32.394061     1.7621      7.190   299.3589 1.2375e+03     8.8606      0.042      0.061    14.7989   999.1491 0.0000e+00
      0.047      0.020     5.2905     73.090     40.710  32.406430     1.7658      7.189   299.0980 1.1721e+03     8.8740      0.045      0.065    14.7953   999.1496 0.0000e+00
      0.053      0.020     5.2701     72.555     40.691  32.392584     1.7699      7.185   298.7489 1.1423e+03     8.8223      0.051      0.075    14.7935   999.1499 0.0000e+00
      0.059      0.021     5.2465     72.081     40.641  32.353573     1.7861      7.181   298.3218 1.1250e+03     8.7594      0.058      0.084    14.7946   999.1498 0.0000e+00
      0.064      0.021     5.2186     71.696     40.593  32.315509     1.7966      7.176   298.0634 1.1150e+03     8.7689      0.063      0.091    14.7968   999.1495 0.0000e+00
