* Sea-Bird SBE19plus  Data File:
* FileName = C:\DATA\051418_fcr_0003.hex
* Software version 2.6.3.104 SB_Terminal.dll
* Temperature SN = 7809
* Conductivity SN = 7809
* System UpLoad Time = May 14 2018 15:31:21
* <ApplicationData>
* <Seaterm232>
* <SoftwareVersion>2.6.3.104</SoftwareVersion>
* <BuildDate>30-Jun-2017</BuildDate>
* </Seaterm232>
* </ApplicationData>
* cast   3 14 May 2018 16:13:38 samples 1763 to 2517, avg = 1, stop = mag switch
# nquan = 15
# nvalues = 683                         
# units = specified
# name 0 = depFM: Depth [fresh water, m]
# name 1 = dz/dtM: Descent Rate [m/s]
# name 2 = sbeox0Mg/L: Oxygen, SBE 43 [mg/l]
# name 3 = sbeox0PS: Oxygen, SBE 43 [% saturation]
# name 4 = specc: Specific Conductance [uS/cm]
# name 5 = c0uS/cm: Conductivity [uS/cm]
# name 6 = flECO-AFL: Fluorescence, WET Labs ECO-AFL/FL [mg/m^3]
# name 7 = ph: pH
# name 8 = orp: Oxidation Reduction Potential [mV]
# name 9 = par/sat/log: PAR/Logarithmic, Satlantic
# name 10 = turbWETntu0: Turbidity, WET Labs ECO [NTU]
# name 11 = prdM: Pressure, Strain Gauge [db]
# name 12 = prdE: Pressure, Strain Gauge [psi]
# name 13 = tv290C: Temperature [ITS-90, deg C]
# name 14 = flag:  0.000e+00
# span 0 =     -0.122,      3.512       
# span 1 =     -0.166,      0.143       
# span 2 =     3.4117,    13.3591       
# span 3 =     32.344,    139.206       
# span 4 =     32.936,     42.213       
# span 5 =  27.443331,  35.978400       
# span 6 =     0.5467,     1.9547       
# span 7 =      6.977,      8.450       
# span 8 =   240.4354,   325.5987       
# span 9 = 7.5441e+01, 2.7968e+03       
# span 10 =    -0.0434,     8.0141      
# span 11 =     -0.124,      3.445      
# span 12 =     -0.182,      4.996      
# span 13 =    12.9280,    24.4502      
# span 14 = 0.0000e+00, 0.0000e+00      
# interval = seconds: 0.25
# start_time = May 14 2018 16:13:38 [Instrument's time stamp, header]
# bad_flag = -9.990e-29
# <Sensors count="9" >
#   <sensor Channel="1" >
#     <!-- Count, Temperature -->
#     <TemperatureSensor SensorID="58" >
#       <SerialNumber>7809</SerialNumber>
#       <CalibrationDate>09-Mar-18</CalibrationDate>
#       <A0>1.21093245e-003</A0>
#       <A1>2.84356597e-004</A1>
#       <A2>-1.94507398e-006</A2>
#       <A3>2.12806664e-007</A3>
#       <Slope>1.00000000</Slope>
#       <Offset>0.0000</Offset>
#     </TemperatureSensor>
#   </sensor>
#   <sensor Channel="2" >
#     <!-- Frequency 0, Conductivity -->
#     <ConductivitySensor SensorID="3" >
#       <SerialNumber>7809</SerialNumber>
#       <CalibrationDate>09-Mar-18</CalibrationDate>
#       <UseG_J>1</UseG_J>
#       <!-- Cell const and series R are applicable only for wide range sensors. -->
#       <SeriesR>0.0000</SeriesR>
#       <CellConst>2000.0000</CellConst>
#       <ConductivityType>0</ConductivityType>
#       <Coefficients equation="0" >
#         <A>0.00000000e+000</A>
#         <B>0.00000000e+000</B>
#         <C>0.00000000e+000</C>
#         <D>0.00000000e+000</D>
#         <M>0.0</M>
#         <CPcor>-9.57000000e-008</CPcor>
#       </Coefficients>
#       <Coefficients equation="1" >
#         <G>-1.00672082e+000</G>
#         <H>1.26906489e-001</H>
#         <I>-1.40584351e-004</I>
#         <J>2.47837121e-005</J>
#         <CPcor>-9.57000000e-008</CPcor>
#         <CTcor>3.2500e-006</CTcor>
#         <!-- WBOTC not applicable unless ConductivityType = 1. -->
#         <WBOTC>0.00000000e+000</WBOTC>
#       </Coefficients>
#       <Slope>1.00000000</Slope>
#       <Offset>0.00000</Offset>
#     </ConductivitySensor>
#   </sensor>
#   <sensor Channel="3" >
#     <!-- Count, Pressure, Strain Gauge -->
#     <PressureSensor SensorID="46" >
#       <SerialNumber>7809</SerialNumber>
#       <CalibrationDate>07-Mar-18</CalibrationDate>
#       <PA0>-4.08176359e-002</PA0>
#       <PA1>4.85188419e-004</PA1>
#       <PA2>-3.51168169e-012</PA2>
#       <PTEMPA0>-5.37806900e+001</PTEMPA0>
#       <PTEMPA1>5.36620721e+001</PTEMPA1>
#       <PTEMPA2>4.87214332e-002</PTEMPA2>
#       <PTCA0>5.25213435e+005</PTCA0>
#       <PTCA1>1.79532409e+000</PTCA1>
#       <PTCA2>-2.84353509e-001</PTCA2>
#       <PTCB0>2.51668750e+001</PTCB0>
#       <PTCB1>3.75000000e-004</PTCB1>
#       <PTCB2>0.00000000e+000</PTCB2>
#       <Offset>0.000000</Offset>
#     </PressureSensor>
#   </sensor>
#   <sensor Channel="4" >
#     <!-- A/D voltage 0, pH -->
#     <pH_Sensor SensorID="43" >
#       <SerialNumber>0363</SerialNumber>
#       <CalibrationDate>16-Mar-18</CalibrationDate>
#       <Slope>4.6194</Slope>
#       <Offset>2.5947</Offset>
#     </pH_Sensor>
#   </sensor>
#   <sensor Channel="5" >
#     <!-- A/D voltage 1, Oxidation Reduction Potential -->
#     <OxidationReductionPotentialSensor SensorID="41" >
#       <SerialNumber>0363</SerialNumber>
#       <CalibrationDate>16-Mar-18</CalibrationDate>
#       <B>2.499480</B>
#       <M>-0.496195</M>
#       <Offset>0.0</Offset>
#     </OxidationReductionPotentialSensor>
#   </sensor>
#   <sensor Channel="6" >
#     <!-- A/D voltage 2, Oxygen, SBE 43 -->
#     <OxygenSensor SensorID="38" >
#       <SerialNumber>0434</SerialNumber>
#       <CalibrationDate>13-Mar-18</CalibrationDate>
#       <Use2007Equation>1</Use2007Equation>
#       <CalibrationCoefficients equation="0" >
#         <!-- Coefficients for Owens-Millard equation. -->
#         <Boc>0.0000</Boc>
#         <Soc>0.0000e+000</Soc>
#         <offset>0.0000</offset>
#         <Pcor>0.00e+000</Pcor>
#         <Tcor>0.0000</Tcor>
#         <Tau>0.0</Tau>
#       </CalibrationCoefficients>
#       <CalibrationCoefficients equation="1" >
#         <!-- Coefficients for Sea-Bird equation - SBE calibration in 2007 and later. -->
#         <Soc>4.5718e-001</Soc>
#         <offset>-0.6113</offset>
#         <A>-4.0649e-003</A>
#         <B> 2.0945e-004</B>
#         <C>-3.3182e-006</C>
#         <D0> 2.5826e+000</D0>
#         <D1> 1.92634e-004</D1>
#         <D2>-4.64803e-002</D2>
#         <E> 3.6000e-002</E>
#         <Tau20> 1.2200</Tau20>
#         <H1>-3.3000e-002</H1>
#         <H2> 5.0000e+003</H2>
#         <H3> 1.4500e+003</H3>
#       </CalibrationCoefficients>
#     </OxygenSensor>
#   </sensor>
#   <sensor Channel="7" >
#     <!-- A/D voltage 3, PAR/Logarithmic, Satlantic -->
#     <PARLog_SatlanticSensor SensorID="76" >
#       <SerialNumber>1122</SerialNumber>
#       <CalibrationDate>22-Jun-2017</CalibrationDate>
#       <a0>9.6090e-001</a0>
#       <a1>8.0780e-001</a1>
#       <Im>1.3589e+000</Im>
#       <Multiplier>1.0000e+000</Multiplier>
#     </PARLog_SatlanticSensor>
#   </sensor>
#   <sensor Channel="8" >
#     <!-- A/D voltage 4, Fluorometer, WET Labs ECO-AFL/FL -->
#     <FluoroWetlabECO_AFL_FL_Sensor SensorID="20" >
#       <SerialNumber>FLNTURT-2496</SerialNumber>
#       <CalibrationDate>25-Jan-2017</CalibrationDate>
#       <ScaleFactor>5.30000000e+001</ScaleFactor>
#       <!-- Dark output -->
#       <Vblank>0.0560</Vblank>
#     </FluoroWetlabECO_AFL_FL_Sensor>
#   </sensor>
#   <sensor Channel="9" >
#     <!-- A/D voltage 5, Turbidity Meter, WET Labs, ECO-NTU -->
#     <TurbidityMeter SensorID="67" >
#       <SerialNumber>FLNTURT-2496</SerialNumber>
#       <CalibrationDate>25-Jan-2017</CalibrationDate>
#       <ScaleFactor>176.000000</ScaleFactor>
#       <!-- Dark output -->
#       <DarkVoltage>0.072000</DarkVoltage>
#     </TurbidityMeter>
#   </sensor>
# </Sensors>
# datcnv_date = May 14 2018 15:34:56, 7.26.7.114 [datcnv_vars = 14]
# datcnv_in = C:\DATA\051418_fcr20.hex C:\DATA\SBE19plusV2_7809.xmlcon
# datcnv_skipover = 0
# datcnv_ox_hysteresis_correction = yes
# datcnv_ox_tau_correction = yes
# filter_date = May 14 2018 15:35:17, 7.26.7.114
# filter_in = C:\DATA\051418_fcr20.cnv
# filter_low_pass_tc_A = 0.030
# filter_low_pass_tc_B = 0.150
# filter_low_pass_A_vars = prdM prdE tv290C
# filter_low_pass_B_vars = depFM dz/dtM sbeox0Mg/L sbeox0PS specc c0uS/cm flECO-AFL ph orp par/sat/log turbWETntu0
# alignctd_date = May 14 2018 15:35:42, 7.26.7.114
# alignctd_in = C:\DATA\051418_fcr20.cnv
# alignctd_adv = dz/dtM 1.000, sbeox0Mg/L 1.000, sbeox0PS 1.000, specc 1.000, c0uS/cm 1.000, flECO-AFL 1.000, ph 1.000, orp 1.000, turbWETntu0 1.000                                                                                 
# file_type = ascii
*END*
     -0.092     -0.018     8.4195    100.232     36.200  35.558034     0.8295      7.271   240.4354 2.1455e+03     0.3627     -0.088     -0.128    24.2474 0.0000e+00
     -0.100     -0.018     8.4103    100.120     36.213  35.570245     0.8379      7.282   242.2339 1.9469e+03     0.3331     -0.095     -0.136    24.1851 0.0000e+00
     -0.113     -0.015     8.3822     99.808     36.223  35.588515     0.8351      7.283   243.9222 1.7838e+03     0.3356     -0.113     -0.164    24.1415 0.0000e+00
     -0.122     -0.008     8.3370     99.310     36.272  35.651912     0.8329      7.273   245.1022 1.9568e+03     0.3617     -0.124     -0.182    24.1217 0.0000e+00
     -0.121      0.004     8.2275     98.058     36.366  35.765094     0.8388      7.273   245.4891 2.1660e+03     0.4044     -0.119     -0.173    24.1010 0.0000e+00
     -0.115      0.022     8.0513     96.010     36.394  35.813628     0.8427      7.293   245.5023 2.1913e+03     0.4247     -0.112     -0.164    24.1007 0.0000e+00
     -0.107      0.046     7.8962     94.186     36.363  35.794112     0.8342      7.321   245.5201 1.8856e+03     0.3938     -0.106     -0.153    24.1157 0.0000e+00
     -0.098      0.074     7.8101     93.147     36.358  35.783223     0.8269      7.344   245.6177 1.1900e+03     0.3663     -0.097     -0.141    24.1352 0.0000e+00
     -0.083      0.099     7.7774     92.699     36.345  35.745488     0.8376      7.361   245.8227 6.2820e+02     0.3669     -0.087     -0.127    24.1677 0.0000e+00
     -0.054      0.120     7.7636     92.430     36.232  35.591915     0.8437      7.373   246.2783 4.5782e+02     0.3705     -0.060     -0.087    24.2034 0.0000e+00
     -0.010      0.135     7.7312     91.914     36.080  35.387320     0.8358      7.384   246.9100 6.7883e+02     0.3795     -0.011     -0.017    24.2198 0.0000e+00
      0.040      0.143     7.6664     91.019     36.049  35.304351     0.8716      7.394   247.4372 8.9691e+02     0.3846      0.043      0.063    24.2144 0.0000e+00
      0.082      0.142     7.5848     89.958     36.137  35.350919     0.9638      7.396   247.8344 6.1006e+02     0.4016      0.085      0.123    24.1803 0.0000e+00
      0.115      0.130     7.4882     88.753     36.257  35.442140     1.0321      7.394   248.3568 3.4710e+02     0.4006      0.113      0.164    24.1180 0.0000e+00
      0.144      0.110     7.3635     87.238     36.351  35.517960     1.0540      7.397   249.1935 7.2477e+02     0.3733      0.141      0.205    24.0329 0.0000e+00
      0.173      0.086     7.2271     85.598     36.350  35.505375     1.0817      7.408   250.2084 1.1418e+03     0.3770      0.171      0.247    23.9525 0.0000e+00
      0.196      0.063     7.1120     84.209     36.271  35.417008     1.1272      7.420   251.1631 1.0132e+03     0.3850      0.197      0.285    23.9002 0.0000e+00
      0.209      0.042     7.0425     83.355     36.206  35.338811     1.1539      7.429   251.9609 7.9357e+02     0.4082      0.209      0.303    23.8661 0.0000e+00
      0.213      0.025     7.0214     83.070     36.205  35.322136     1.1574      7.427   252.7984 6.4489e+02     0.4438      0.210      0.305    23.8468 0.0000e+00
      0.210      0.013     7.0246     83.080     36.240  35.342397     1.1321      7.415   253.7179 6.8079e+02     0.4188      0.207      0.300    23.8346 0.0000e+00
      0.206      0.004     7.0280     83.105     36.233  35.329685     1.0777      7.406   254.4756 8.0099e+02     0.3807      0.201      0.292    23.8172 0.0000e+00
      0.206      0.000     7.0207     83.020     36.198  35.295462     1.0426      7.405   255.0756 7.9500e+02     0.3795      0.200      0.290    23.7979 0.0000e+00
      0.211 -8.566e-07     7.0011     82.805     36.205  35.309745     1.0381      7.409   255.7241 1.0328e+03     0.3749      0.207      0.302    23.7736 0.0000e+00
      0.213      0.000     6.9745     82.515     36.260  35.375353     1.0411      7.414   256.4664 1.2964e+03     0.3549      0.211      0.305    23.7526 0.0000e+00
      0.212      0.000     6.9454     82.188     36.332  35.453533     1.0148      7.422   257.2533 1.3116e+03     0.3200      0.207      0.300    23.7444 0.0000e+00
      0.210     -0.001     6.9233     81.929     36.371  35.492759     0.9503      7.433   257.9254 1.3405e+03     0.3200      0.205      0.298    23.7440 0.0000e+00
      0.209     -0.003     6.9230     81.915     36.351  35.468504     0.9045      7.448   258.3977 1.4470e+03     0.3859      0.204      0.297    23.7570 0.0000e+00
      0.207     -0.003     6.9465     82.171     36.306  35.414349     0.8921      7.460   258.8336 1.6119e+03     0.4445      0.203      0.295    23.7766 0.0000e+00
      0.207     -0.002     6.9946     82.711     36.250  35.346139     0.8655      7.469   259.4110 1.6826e+03     0.4485      0.203      0.294    23.7892 0.0000e+00
      0.208     -0.002     7.0699     83.568     36.197  35.278969     0.8119      7.476   260.1308 1.4819e+03     0.4045      0.204      0.295    23.7907 0.0000e+00
      0.208     -0.002     7.1579     84.576     36.169  35.237385     0.7778      7.480   260.8255 1.5844e+03     0.3691      0.204      0.296    23.7824 0.0000e+00
      0.207     -0.001     7.2424     85.549     36.167  35.224452     0.7750      7.483   261.4437 2.3442e+03     0.3871      0.203      0.295    23.7686 0.0000e+00
      0.206     -0.001     7.3149     86.392     36.200  35.249631     0.7784      7.484   261.9257 2.7968e+03     0.4091      0.202      0.293    23.7481 0.0000e+00
      0.205      0.000     7.3649     86.975     36.242  35.287731     0.7817      7.484   262.2656 2.3489e+03     0.3906      0.200      0.289    23.7251 0.0000e+00
      0.205      0.002     7.3871     87.235     36.260  35.303983     0.7780      7.484   262.6281 1.7835e+03     0.3768      0.199      0.290    23.7047 0.0000e+00
      0.206      0.003     7.3860     87.223     36.275  35.319090     0.7701      7.483   263.0390 1.4632e+03     0.3958      0.202      0.293    23.6887 0.0000e+00
      0.208      0.003     7.3641     86.967     36.299  35.343353     0.7700      7.480   263.6202 1.2310e+03     0.4062      0.204      0.296    23.6800 0.0000e+00
      0.210      0.002     7.3219     86.470     36.298  35.343261     0.7757      7.474   264.2348 1.5413e+03     0.4114      0.206      0.299    23.6766 0.0000e+00
      0.210     -0.000     7.2626     85.769     36.272  35.317967     0.7748      7.469   264.5333 1.9364e+03     0.4274      0.207      0.300    23.6759 0.0000e+00
      0.210     -0.002     7.1914     84.924     36.247  35.291613     0.7682      7.465   264.8208 1.6385e+03     0.4167      0.206      0.299    23.6765 0.0000e+00
      0.209     -0.002     7.1149     84.016     36.236  35.278700     0.7881      7.462   265.3021 1.2503e+03     0.4047      0.205      0.298    23.6783 0.0000e+00
      0.206     -0.002     7.0356     83.077     36.248  35.288877     0.8319      7.460   265.7920 1.1721e+03     0.4046      0.202      0.293    23.6794 0.0000e+00
      0.205     -0.001     6.9515     82.082     36.248  35.287618     0.8469      7.460   266.2702 1.0467e+03     0.3850      0.199      0.288    23.6796 0.0000e+00
      0.205     -0.001     6.8686     81.100     36.223  35.263468     0.8319      7.461   266.6106 7.4261e+02     0.3803      0.200      0.291    23.6768 0.0000e+00
      0.208     -0.001     6.8015     80.304     36.213  35.250973     0.8158      7.463   266.8959 6.2921e+02     0.3793      0.203      0.297    23.6722 0.0000e+00
      0.209     -0.001     6.7658     79.878     36.228  35.263582     0.7991      7.466   267.3961 8.4384e+02     0.3718      0.206      0.299    23.6704 0.0000e+00
      0.207     -0.001     6.7657     79.874     36.256  35.288878     0.7870      7.469   267.9266 1.0668e+03     0.3820      0.203      0.294    23.6701 0.0000e+00
      0.204     -0.002     6.7878     80.136     36.270  35.302737     0.7886      7.471   268.3206 1.1300e+03     0.3808      0.199      0.289    23.6696 0.0000e+00
      0.204     -0.002     6.8154     80.463     36.270  35.304110     0.7910      7.471   268.7182 1.0833e+03     0.3868      0.199      0.288    23.6664 0.0000e+00
      0.205     -0.001     6.8410     80.762     36.273  35.305474     0.7794      7.471   269.1204 1.0028e+03     0.4247      0.201      0.291    23.6619 0.0000e+00
      0.205      0.001     6.8619     81.005     36.289  35.319230     0.7676      7.473   269.5698 1.1346e+03     0.4414      0.201      0.291    23.6600 0.0000e+00
      0.205      0.001     6.8747     81.152     36.316  35.343390     0.7677      7.477   270.1076 1.5160e+03     0.4064      0.200      0.290    23.6619 0.0000e+00
      0.206      0.001     6.8747     81.149     36.317  35.343505     0.7720      7.478   270.5465 1.6612e+03     0.3676      0.201      0.292    23.6636 0.0000e+00
      0.206      0.001     6.8576     80.944     36.296  35.320618     0.7547      7.477   270.8321 1.5851e+03     0.3696      0.203      0.294    23.6613 0.0000e+00
      0.206      0.001     6.8240     80.544     36.298  35.320743     0.7242      7.473   271.0661 1.6125e+03     0.3988      0.203      0.295    23.6578 0.0000e+00
      0.205      0.002     6.7817     80.048     36.321  35.345016     0.7153      7.468   271.2255 1.6982e+03     0.4161      0.201      0.291    23.6553 0.0000e+00
      0.204      0.002     6.7347     79.509     36.328  35.360020     0.7113      7.466   271.2961 1.7026e+03     0.3954      0.199      0.289    23.6539 0.0000e+00
      0.206      0.001     6.6817     78.904     36.333  35.375128     0.6942      7.466   271.4895 1.4299e+03     0.3929      0.201      0.292    23.6518 0.0000e+00
      0.209      0.000     6.6234     78.229     36.352  35.400652     0.6830      7.466   271.8434 1.2397e+03     0.4163      0.205      0.298    23.6472 0.0000e+00
      0.209     -0.001     6.5621     77.512     36.362  35.414553     0.6860      7.467   272.0478 1.3816e+03     0.4041      0.206      0.299    23.6477 0.0000e+00
      0.208     -0.001     6.5023     76.815     36.360  35.416169     0.6850      7.470   271.9820 1.3964e+03     0.3981      0.204      0.295    23.6606 0.0000e+00
      0.206     -0.001     6.4528     76.238     36.360  35.420194     0.6795      7.472   271.9932 1.2462e+03     0.4045      0.201      0.292    23.6790 0.0000e+00
      0.204      0.000     6.4199     75.854     36.402  35.463226     0.6751      7.473   272.3553 1.2376e+03     0.3890      0.200      0.290    23.6875 0.0000e+00
      0.202      0.002     6.4026     75.661     36.490  35.555344     0.6781      7.471   272.9190 1.3386e+03     0.3948      0.197      0.285    23.6891 0.0000e+00
      0.204      0.004     6.3942     75.581     36.572  35.644684     0.6876      7.469   273.3886 1.3961e+03     0.4137      0.198      0.286    23.6966 0.0000e+00
      0.209      0.004     6.3848     75.483     36.640  35.717659     0.6800      7.466   273.6449 1.4086e+03     0.4037      0.206      0.299    23.7034 0.0000e+00
      0.213      0.004     6.3658     75.263     36.660  35.738944     0.6684      7.461   273.7801 1.2003e+03     0.3958      0.211      0.306    23.7025 0.0000e+00
      0.212      0.004     6.3359     74.910     36.631  35.711484     0.6665      7.455   273.9051 7.8126e+02     0.4108      0.209      0.302    23.7096 0.0000e+00
