* Sea-Bird SBE19plus  Data File:
* FileName = C:\DATA\060418_fcr50_0005.hex
* Software version 2.6.3.104 SB_Terminal.dll
* Temperature SN = 7809
* Conductivity SN = 7809
* System UpLoad Time = Jun 04 2018 16:28:41
* <ApplicationData>
* <Seaterm232>
* <SoftwareVersion>2.6.3.104</SoftwareVersion>
* <BuildDate>30-Jun-2017</BuildDate>
* </Seaterm232>
* </ApplicationData>
* cast   5 04 Jun 2018 14:58:54 samples 4032 to 4562, avg = 1, stop = mag switch
# nquan = 15
# nvalues = 311                         
# units = specified
# name 0 = depFM: Depth [fresh water, m]
# name 1 = dz/dtM: Descent Rate [m/s]
# name 2 = sbeox0Mg/L: Oxygen, SBE 43 [mg/l]
# name 3 = sbeox0PS: Oxygen, SBE 43 [% saturation]
# name 4 = specc: Specific Conductance [uS/cm]
# name 5 = c0uS/cm: Conductivity [uS/cm]
# name 6 = flECO-AFL: Fluorescence, WET Labs ECO-AFL/FL [mg/m^3]
# name 7 = ph: pH
# name 8 = orp: Oxidation Reduction Potential [mV]
# name 9 = par/sat/log: PAR/Logarithmic, Satlantic
# name 10 = turbWETntu0: Turbidity, WET Labs ECO [NTU]
# name 11 = prdM: Pressure, Strain Gauge [db]
# name 12 = prdE: Pressure, Strain Gauge [psi]
# name 13 = tv290C: Temperature [ITS-90, deg C]
# name 14 = flag:  0.000e+00
# span 0 =     -0.625,      5.437       
# span 1 =     -0.046,      0.198       
# span 2 =     0.6204,    10.3721       
# span 3 =      5.639,    112.086       
# span 4 =      0.474,     44.926       
# span 5 =   0.426164,  33.093318       
# span 6 =    -0.4478,     2.5909       
# span 7 =      5.820,      7.493       
# span 8 = -1240.7455,   509.0908       
# span 9 = 3.0550e+00, 2.0944e+03       
# span 10 =    -0.6745,     5.2936      
# span 11 =     -0.613,      5.333      
# span 12 =     -0.889,      7.734      
# span 13 =    10.0800,    23.4358      
# span 14 = 0.0000e+00, 0.0000e+00      
# interval = seconds: 0.25
# start_time = Jun 04 2018 14:58:54 [Instrument's time stamp, header]
# bad_flag = -9.990e-29
# <Sensors count="9" >
#   <sensor Channel="1" >
#     <!-- Count, Temperature -->
#     <TemperatureSensor SensorID="58" >
#       <SerialNumber>7809</SerialNumber>
#       <CalibrationDate>09-Mar-18</CalibrationDate>
#       <A0>1.21093245e-003</A0>
#       <A1>2.84356597e-004</A1>
#       <A2>-1.94507398e-006</A2>
#       <A3>2.12806664e-007</A3>
#       <Slope>1.00000000</Slope>
#       <Offset>0.0000</Offset>
#     </TemperatureSensor>
#   </sensor>
#   <sensor Channel="2" >
#     <!-- Frequency 0, Conductivity -->
#     <ConductivitySensor SensorID="3" >
#       <SerialNumber>7809</SerialNumber>
#       <CalibrationDate>09-Mar-18</CalibrationDate>
#       <UseG_J>1</UseG_J>
#       <!-- Cell const and series R are applicable only for wide range sensors. -->
#       <SeriesR>0.0000</SeriesR>
#       <CellConst>2000.0000</CellConst>
#       <ConductivityType>0</ConductivityType>
#       <Coefficients equation="0" >
#         <A>0.00000000e+000</A>
#         <B>0.00000000e+000</B>
#         <C>0.00000000e+000</C>
#         <D>0.00000000e+000</D>
#         <M>0.0</M>
#         <CPcor>-9.57000000e-008</CPcor>
#       </Coefficients>
#       <Coefficients equation="1" >
#         <G>-1.00672082e+000</G>
#         <H>1.26906489e-001</H>
#         <I>-1.40584351e-004</I>
#         <J>2.47837121e-005</J>
#         <CPcor>-9.57000000e-008</CPcor>
#         <CTcor>3.2500e-006</CTcor>
#         <!-- WBOTC not applicable unless ConductivityType = 1. -->
#         <WBOTC>0.00000000e+000</WBOTC>
#       </Coefficients>
#       <Slope>1.00000000</Slope>
#       <Offset>0.00000</Offset>
#     </ConductivitySensor>
#   </sensor>
#   <sensor Channel="3" >
#     <!-- Count, Pressure, Strain Gauge -->
#     <PressureSensor SensorID="46" >
#       <SerialNumber>7809</SerialNumber>
#       <CalibrationDate>07-Mar-18</CalibrationDate>
#       <PA0>-4.08176359e-002</PA0>
#       <PA1>4.85188419e-004</PA1>
#       <PA2>-3.51168169e-012</PA2>
#       <PTEMPA0>-5.37806900e+001</PTEMPA0>
#       <PTEMPA1>5.36620721e+001</PTEMPA1>
#       <PTEMPA2>4.87214332e-002</PTEMPA2>
#       <PTCA0>5.25213435e+005</PTCA0>
#       <PTCA1>1.79532409e+000</PTCA1>
#       <PTCA2>-2.84353509e-001</PTCA2>
#       <PTCB0>2.51668750e+001</PTCB0>
#       <PTCB1>3.75000000e-004</PTCB1>
#       <PTCB2>0.00000000e+000</PTCB2>
#       <Offset>0.000000</Offset>
#     </PressureSensor>
#   </sensor>
#   <sensor Channel="4" >
#     <!-- A/D voltage 0, pH -->
#     <pH_Sensor SensorID="43" >
#       <SerialNumber>0363</SerialNumber>
#       <CalibrationDate>16-Mar-18</CalibrationDate>
#       <Slope>4.6194</Slope>
#       <Offset>2.5947</Offset>
#     </pH_Sensor>
#   </sensor>
#   <sensor Channel="5" >
#     <!-- A/D voltage 1, Oxidation Reduction Potential -->
#     <OxidationReductionPotentialSensor SensorID="41" >
#       <SerialNumber>0363</SerialNumber>
#       <CalibrationDate>16-Mar-18</CalibrationDate>
#       <B>2.499480</B>
#       <M>-0.496195</M>
#       <Offset>0.0</Offset>
#     </OxidationReductionPotentialSensor>
#   </sensor>
#   <sensor Channel="6" >
#     <!-- A/D voltage 2, Oxygen, SBE 43 -->
#     <OxygenSensor SensorID="38" >
#       <SerialNumber>0434</SerialNumber>
#       <CalibrationDate>13-Mar-18</CalibrationDate>
#       <Use2007Equation>1</Use2007Equation>
#       <CalibrationCoefficients equation="0" >
#         <!-- Coefficients for Owens-Millard equation. -->
#         <Boc>0.0000</Boc>
#         <Soc>0.0000e+000</Soc>
#         <offset>0.0000</offset>
#         <Pcor>0.00e+000</Pcor>
#         <Tcor>0.0000</Tcor>
#         <Tau>0.0</Tau>
#       </CalibrationCoefficients>
#       <CalibrationCoefficients equation="1" >
#         <!-- Coefficients for Sea-Bird equation - SBE calibration in 2007 and later. -->
#         <Soc>4.5718e-001</Soc>
#         <offset>-0.6113</offset>
#         <A>-4.0649e-003</A>
#         <B> 2.0945e-004</B>
#         <C>-3.3182e-006</C>
#         <D0> 2.5826e+000</D0>
#         <D1> 1.92634e-004</D1>
#         <D2>-4.64803e-002</D2>
#         <E> 3.6000e-002</E>
#         <Tau20> 1.2200</Tau20>
#         <H1>-3.3000e-002</H1>
#         <H2> 5.0000e+003</H2>
#         <H3> 1.4500e+003</H3>
#       </CalibrationCoefficients>
#     </OxygenSensor>
#   </sensor>
#   <sensor Channel="7" >
#     <!-- A/D voltage 3, PAR/Logarithmic, Satlantic -->
#     <PARLog_SatlanticSensor SensorID="76" >
#       <SerialNumber>1122</SerialNumber>
#       <CalibrationDate>22-Jun-2017</CalibrationDate>
#       <a0>9.6090e-001</a0>
#       <a1>8.0780e-001</a1>
#       <Im>1.3589e+000</Im>
#       <Multiplier>1.0000e+000</Multiplier>
#     </PARLog_SatlanticSensor>
#   </sensor>
#   <sensor Channel="8" >
#     <!-- A/D voltage 4, Fluorometer, WET Labs ECO-AFL/FL -->
#     <FluoroWetlabECO_AFL_FL_Sensor SensorID="20" >
#       <SerialNumber>FLNTURT-2496</SerialNumber>
#       <CalibrationDate>25-Jan-2017</CalibrationDate>
#       <ScaleFactor>5.30000000e+001</ScaleFactor>
#       <!-- Dark output -->
#       <Vblank>0.0560</Vblank>
#     </FluoroWetlabECO_AFL_FL_Sensor>
#   </sensor>
#   <sensor Channel="9" >
#     <!-- A/D voltage 5, Turbidity Meter, WET Labs, ECO-NTU -->
#     <TurbidityMeter SensorID="67" >
#       <SerialNumber>FLNTURT-2496</SerialNumber>
#       <CalibrationDate>25-Jan-2017</CalibrationDate>
#       <ScaleFactor>176.000000</ScaleFactor>
#       <!-- Dark output -->
#       <DarkVoltage>0.072000</DarkVoltage>
#     </TurbidityMeter>
#   </sensor>
# </Sensors>
# datcnv_date = Jun 04 2018 16:37:17, 7.26.7.114 [datcnv_vars = 14]
# datcnv_in = C:\DATA\060418_fcr30.hex C:\DATA\SBE19plusV2_7809.xmlcon
# datcnv_skipover = 0
# datcnv_ox_hysteresis_correction = yes
# datcnv_ox_tau_correction = yes
# filter_date = Jun 04 2018 16:37:48, 7.26.7.114
# filter_in = C:\DATA\060418_fcr30.cnv
# filter_low_pass_tc_A = 0.030
# filter_low_pass_tc_B = 0.150
# filter_low_pass_A_vars = prdM prdE tv290C
# filter_low_pass_B_vars = depFM dz/dtM sbeox0Mg/L sbeox0PS specc c0uS/cm flECO-AFL ph orp par/sat/log turbWETntu0
# alignctd_date = Jun 04 2018 16:38:15, 7.26.7.114
# alignctd_in = C:\DATA\060418_fcr30.cnv
# alignctd_adv = dz/dtM 1.000, sbeox0Mg/L 1.000, sbeox0PS 1.000, specc 1.000, c0uS/cm 1.000, flECO-AFL 1.000, ph 1.000, orp 1.000, turbWETntu0 1.000                                                                                 
# file_type = ascii
*END*
     -0.624 4.3139e-20     8.5411     93.782      0.550   0.494293    -0.1927      5.820 -1240.7455 2.0489e+03    -0.0218     -0.612     -0.887    19.9117 0.0000e+00
     -0.624 3.9217e-21     8.5405     93.777      0.549   0.493035    -0.1953      5.822 -1240.7455 2.0799e+03    -0.0346     -0.612     -0.887    19.9123 0.0000e+00
     -0.624 3.5608e-22     8.5405     93.779      0.522   0.468813    -0.1817      5.826 -1240.7455 2.0944e+03    -0.1851     -0.612     -0.888    19.9130 0.0000e+00
     -0.624 2.7577e-23     8.5401     93.775      0.506   0.455082    -0.1658      5.830 -1240.7455 2.0489e+03    -0.4673     -0.612     -0.887    19.9137 0.0000e+00
     -0.624 -5.022e-23     8.5399     93.774      0.505   0.453834    -0.1693      5.832 -1240.7455 1.5630e+03    -0.6087     -0.612     -0.888    19.9143 0.0000e+00
     -0.624 -5.846e-22     8.5405     93.783      0.505   0.453721    -0.1859      5.832 -1240.7455 6.7248e+02    -0.6435     -0.612     -0.887    19.9150 0.0000e+00
     -0.624 -6.434e-21     8.5409     93.788      0.505   0.453720    -0.1926      5.835 -1240.7455 1.7833e+02    -0.6745     -0.612     -0.888    19.9158 0.0000e+00
     -0.624 -7.077e-20     8.5409     93.790      0.505   0.453823    -0.1855      5.838 -1240.7455 1.2267e+02    -0.5265     -0.612     -0.888    19.9164 0.0000e+00
     -0.625 -7.785e-19     8.5420     93.804      0.506   0.454967    -0.1835      5.838 -1240.7455 1.2043e+02    -0.2274     -0.613     -0.888    19.9170 0.0000e+00
     -0.625 -8.563e-18     8.5432     93.819      0.520   0.467544    -0.1870      5.834 -1240.7455 2.3421e+02    -0.0181     -0.613     -0.888    19.9177 0.0000e+00
     -0.625 -9.420e-17     8.5431     93.819      0.533   0.479074    -0.1813      5.832 -1240.7455 3.4928e+02     0.0818     -0.613     -0.888    19.9186 0.0000e+00
     -0.625 -1.036e-15     8.5425     93.813      0.521   0.467544    -0.1791      5.834 -1240.7455 2.4993e+02     0.0960     -0.613     -0.888    19.9195 0.0000e+00
     -0.625 -1.140e-14     8.5421     93.810      0.506   0.454967    -0.1881      5.836 -1240.7455 1.2465e+02     0.0318     -0.613     -0.888    19.9203 0.0000e+00
     -0.625 -1.254e-13     8.5417     93.807      0.505   0.453823    -0.1976      5.836 -1240.7455 1.0616e+02     0.0072     -0.612     -0.888    19.9211 0.0000e+00
     -0.625 -1.379e-12     8.5412     93.803      0.505   0.453709    -0.1932      5.836 -1240.7455 1.0908e+02     0.0127     -0.613     -0.888    19.9219 0.0000e+00
     -0.625 -1.517e-11     8.5405     93.797      0.505   0.453595    -0.1811      5.836 -1240.7455 1.1608e+02    -0.0252     -0.613     -0.888    19.9226 0.0000e+00
     -0.625 -1.669e-10     8.5393     93.785      0.504   0.452441    -0.1803      5.834 -1240.7455 1.2125e+02    -0.0547     -0.613     -0.889    19.9234 0.0000e+00
     -0.625 -1.836e-09     8.5393     93.786      0.490   0.439760    -0.1748      5.834 -1240.7455 1.2325e+02    -0.0385     -0.612     -0.888    19.9240 0.0000e+00
     -0.625 -2.019e-08     8.5404     93.798      0.475   0.427098    -0.1595      5.838 -1240.7455 1.2440e+02    -0.0121     -0.613     -0.889    19.9245 0.0000e+00
     -0.625 -2.221e-07     8.5399     93.793      0.474   0.426164    -0.1614      5.843 -1240.7455 1.2605e+02    -0.1016     -0.612     -0.888    19.9252 0.0000e+00
     -0.625 -4.072e-07     8.5398     93.793      0.477   0.428460    -0.1791      5.847 -1240.7455 1.2815e+02    -0.2963     -0.613     -0.889    19.9256 0.0000e+00
     -0.625 -2.220e-07     8.5404     93.799      0.506   0.454867    -0.1805      5.847 -1240.7455 1.2771e+02    -0.3825     -0.612     -0.888    19.9262 0.0000e+00
     -0.625 -1.961e-08     8.5405     93.801      0.547   0.491801    -0.1687      5.848 -1240.7455 1.2142e+02    -0.4110     -0.613     -0.889    19.9265 0.0000e+00
     -0.625 4.4944e-09     8.5412     93.810      0.551   0.494558    -0.1657      5.852 -1240.7455 1.1177e+02    -0.4586     -0.613     -0.889    19.9269 0.0000e+00
     -0.625 6.9461e-08     8.5416     93.815      0.543   0.488204    -0.1802      5.855 -1240.7452 1.0274e+02    -0.3475     -0.613     -0.888    19.9274 0.0000e+00
     -0.625 7.6590e-07     8.5413     93.812      0.603   0.541795    -0.2160      5.858 -1240.7421 9.5324e+01    -0.1047     -0.613     -0.889    19.9277 0.0000e+00
     -0.625      0.000     8.5403     93.803      0.707   0.635226    -0.2489      5.862 -1240.7079 8.9104e+01     0.0050     -0.613     -0.888    19.9280 0.0000e+00
     -0.625      0.000     8.5382     93.796      0.812   0.730099    -0.2659      5.865 -1240.3321 8.4508e+01    -0.0281     -0.613     -0.889    19.9285 0.0000e+00
     -0.625      0.001     8.5230     93.792      1.162   1.054764    -0.3116      5.873 -1236.1985 8.2346e+01    -0.0782     -0.613     -0.888    19.9282 0.0000e+00
     -0.625      0.006     8.4661     93.790      4.959   4.560726    -0.3966      5.926 -1190.7282 8.2191e+01    -0.1430     -0.612     -0.888    19.9293 0.0000e+00
     -0.625      0.018     8.3639     93.799     12.378  11.466353    -0.4478      6.099 -1032.6474 8.4282e+01    -0.2011     -0.613     -0.888    19.9286 0.0000e+00
     -0.625      0.037     8.2559     93.814     19.907  18.641064    -0.4434      6.376  -402.6707 8.9148e+01    -0.2320     -0.613     -0.888    19.9300 0.0000e+00
     -0.620      0.060     8.1761     93.841     26.982  25.505506    -0.3709      6.674   394.0538 9.4520e+01    -0.2725     -0.612     -0.888    19.9297 0.0000e+00
     -0.604      0.085     8.1249     93.866     30.986  29.460156    -0.2525      6.944   509.0908 9.7108e+01    -0.3542     -0.599     -0.868    20.2245 0.0000e+00
     -0.574      0.103     8.0909     93.874     31.564  30.143972    -0.1965      7.149   322.0301 9.6698e+01    -0.4265     -0.564     -0.818    20.9867 0.0000e+00
     -0.534      0.112     8.0668     93.879     31.602  30.280985    -0.1995      7.286   299.5614 9.5661e+01    -0.4453     -0.526     -0.762    21.7416 0.0000e+00
     -0.491      0.112     8.0474     93.877     31.597  30.354847    -0.1970      7.373   296.2743 9.5416e+01    -0.1841     -0.478     -0.694    22.2404 0.0000e+00
     -0.456      0.104     8.0323     93.877     31.581  30.402094    -0.1849      7.424   297.6013 9.6964e+01     0.3511     -0.439     -0.636    22.5618 0.0000e+00
     -0.437      0.095     8.0201     93.880     31.534  30.407789    -0.1734      7.461   298.5703 9.9357e+01     0.6551     -0.427     -0.619    22.7616 0.0000e+00
     -0.427      0.092     8.0098     93.884     31.439  30.360271    -0.1676      7.487   296.8913 9.9702e+01     0.7441     -0.420     -0.610    22.9136 0.0000e+00
     -0.414      0.096     8.0051     93.932     31.310  30.272158    -0.1418      7.493   294.6803 9.9848e+01     1.7322     -0.409     -0.592    23.0377 0.0000e+00
     -0.394      0.103     8.0078     94.037     31.175  30.168040     0.2305      7.478   293.6914 1.0321e+02     3.7213     -0.391     -0.567    23.1349 0.0000e+00
     -0.360      0.108     8.0168     94.183     31.108  30.117507     0.9336      7.456   289.6674 1.0892e+02     4.9879     -0.356     -0.518    23.2124 0.0000e+00
     -0.316      0.108     8.0321     94.357     31.163  30.169231     1.3288      7.433   281.1309 1.1366e+02     5.2061     -0.308     -0.447    23.2836 0.0000e+00
     -0.276      0.107     8.0519     94.552     31.297  30.285391     1.3691      7.408   273.9346 1.1866e+02     5.1389     -0.264     -0.384    23.3442 0.0000e+00
     -0.251      0.109     8.0708     94.748     31.403  30.378866     1.3478      7.387   270.6283 1.2694e+02     4.1754     -0.238     -0.345    23.3853 0.0000e+00
     -0.243      0.118     8.0876     94.952     31.433  30.410342     1.3093      7.373   269.1176 1.3567e+02     2.4065     -0.238     -0.343    23.4117 0.0000e+00
     -0.234      0.132     8.1058     95.196     31.424  30.411947     1.2899      7.362   268.2309 1.3817e+02     1.4212     -0.240     -0.349    23.4094 0.0000e+00
     -0.201      0.152     8.1298     95.511     31.398  30.398290     1.2888      7.352   267.5636 1.2923e+02     1.2952     -0.207     -0.301    23.3725 0.0000e+00
     -0.144      0.174     8.1635     95.933     31.362  30.372243     1.2953      7.342   267.0724 1.0377e+02     1.2800     -0.143     -0.206    23.3542 0.0000e+00
     -0.080      0.191     8.2097     96.494     31.333  30.351051     1.2954      7.334   267.0243 7.3335e+01     1.2988     -0.075     -0.109    23.3638 0.0000e+00
     -0.021      0.198     8.2676     97.184     31.311  30.332579     1.2904      7.329   267.2400 6.1142e+01     1.3083     -0.017     -0.025    23.3838 0.0000e+00
      0.029      0.191     8.3338     97.967     31.316  30.339417     1.2898      7.324   267.5296 5.8932e+01     1.3038      0.030      0.044    23.4045 0.0000e+00
      0.074      0.175     8.3954     98.691     31.348  30.370225     1.2882      7.319   267.9446 5.3277e+01     1.2750      0.073      0.105    23.4172 0.0000e+00
      0.115      0.153     8.4193     98.964     31.369  30.387555     1.2892      7.317   268.3006 4.9870e+01     1.2657      0.114      0.165    23.4283 0.0000e+00
      0.153      0.130     8.3751     98.427     31.411  30.421932     1.2919      7.317   268.5638 4.9510e+01     1.2832      0.150      0.218    23.4332 0.0000e+00
      0.188      0.110     8.2576     97.017     31.469  30.468333     1.2929      7.314   269.2340 4.9437e+01     1.3030      0.187      0.271    23.4351 0.0000e+00
      0.214      0.100     8.0870     94.990     31.448  30.440530     1.3107      7.305   270.4685 4.9550e+01     1.3216      0.215      0.312    23.4358 0.0000e+00
      0.228      0.100     7.8954     92.731     31.347  30.339774     1.3425      7.290   271.4443 5.0047e+01     1.2944      0.226      0.328    23.4330 0.0000e+00
      0.237      0.106     7.7116     90.569     31.273  30.266187     1.3550      7.272   271.7393 5.0621e+01     1.2484      0.230      0.334    23.4230 0.0000e+00
      0.257      0.114     7.5561     88.720     31.264  30.249357     1.3522      7.257   271.9707 5.1936e+01     1.2535      0.240      0.348    23.4045 0.0000e+00
      0.298      0.121     7.4362     87.278     31.292  30.263274     1.3542      7.247   272.4350 5.6682e+01     1.2954      0.289      0.418    23.3866 0.0000e+00
      0.349      0.121     7.3511     86.255     31.347  30.307432     1.3708      7.242   272.8792 6.3805e+01     1.2668      0.349      0.505    23.3855 0.0000e+00
      0.389      0.112     7.2934     85.568     31.383  30.338708     1.3968      7.245   273.1253 6.9640e+01     1.1520      0.383      0.556    23.3924 0.0000e+00
      0.417      0.092     7.2494     85.051     31.368  30.323906     1.4103      7.253   273.1733 7.7555e+01     1.0980      0.413      0.599    23.3754 0.0000e+00
      0.434      0.066     7.2050     84.527     31.364  30.318985     1.4147      7.261   273.2880 9.8805e+01     1.1020      0.430      0.624    23.3468 0.0000e+00
      0.441      0.041     7.1500     83.876     31.391  30.342706     1.4133      7.266   273.6522 1.6236e+02     1.0782      0.432      0.627    23.3317 0.0000e+00
      0.443      0.023     7.0804     83.054     31.408  30.356695     1.4033      7.271   274.0487 2.1171e+02     1.0848      0.435      0.630    23.3297 0.0000e+00
