* Sea-Bird SBE19plus  Data File:
* FileName = C:\DATA\061418_bvr50_0001.hex
* Software version 2.6.3.104 SB_Terminal.dll
* Temperature SN = 7809
* Conductivity SN = 7809
* System UpLoad Time = Jun 14 2018 16:25:17
* <ApplicationData>
* <Seaterm232>
* <SoftwareVersion>2.6.3.104</SoftwareVersion>
* <BuildDate>30-Jun-2017</BuildDate>
* </Seaterm232>
* </ApplicationData>
* cast   1 11 Jun 2018 13:39:59 samples 1 to 886, avg = 1, stop = mag switch
# nquan = 15
# nvalues = 682                         
# units = specified
# name 0 = depFM: Depth [fresh water, m]
# name 1 = dz/dtM: Descent Rate [m/s]
# name 2 = sbeox0Mg/L: Oxygen, SBE 43 [mg/l]
# name 3 = sbeox0PS: Oxygen, SBE 43 [% saturation]
# name 4 = specc: Specific Conductance [uS/cm]
# name 5 = c0uS/cm: Conductivity [uS/cm]
# name 6 = flECO-AFL: Fluorescence, WET Labs ECO-AFL/FL [mg/m^3]
# name 7 = ph: pH
# name 8 = orp: Oxidation Reduction Potential [mV]
# name 9 = par/sat/log: PAR/Logarithmic, Satlantic
# name 10 = turbWETntu0: Turbidity, WET Labs ECO [NTU]
# name 11 = prdM: Pressure, Strain Gauge [db]
# name 12 = prdE: Pressure, Strain Gauge [psi]
# name 13 = tv290C: Temperature [ITS-90, deg C]
# name 14 = flag:  0.000e+00
# span 0 =     -0.610,      9.632       
# span 1 =     -0.013,      0.277       
# span 2 =     3.9494,     9.9690       
# span 3 =     36.212,    114.207       
# span 4 =      0.646,     42.404       
# span 5 =   0.595761,  32.319757       
# span 6 =    -0.1979,     3.0911       
# span 7 =      5.915,      7.552       
# span 8 = -1225.1554,   357.9396       
# span 9 = 1.2558e-01, 2.9880e+02       
# span 10 =    -0.2314,     6.4110      
# span 11 =     -0.599,      9.446      
# span 12 =     -0.868,     13.700      
# span 13 =    10.3903,    24.6814      
# span 14 = 0.0000e+00, 0.0000e+00      
# interval = seconds: 0.25
# start_time = Jun 11 2018 13:39:59 [Instrument's time stamp, header]
# bad_flag = -9.990e-29
# <Sensors count="9" >
#   <sensor Channel="1" >
#     <!-- Count, Temperature -->
#     <TemperatureSensor SensorID="58" >
#       <SerialNumber>7809</SerialNumber>
#       <CalibrationDate>09-Mar-18</CalibrationDate>
#       <A0>1.21093245e-003</A0>
#       <A1>2.84356597e-004</A1>
#       <A2>-1.94507398e-006</A2>
#       <A3>2.12806664e-007</A3>
#       <Slope>1.00000000</Slope>
#       <Offset>0.0000</Offset>
#     </TemperatureSensor>
#   </sensor>
#   <sensor Channel="2" >
#     <!-- Frequency 0, Conductivity -->
#     <ConductivitySensor SensorID="3" >
#       <SerialNumber>7809</SerialNumber>
#       <CalibrationDate>09-Mar-18</CalibrationDate>
#       <UseG_J>1</UseG_J>
#       <!-- Cell const and series R are applicable only for wide range sensors. -->
#       <SeriesR>0.0000</SeriesR>
#       <CellConst>2000.0000</CellConst>
#       <ConductivityType>0</ConductivityType>
#       <Coefficients equation="0" >
#         <A>0.00000000e+000</A>
#         <B>0.00000000e+000</B>
#         <C>0.00000000e+000</C>
#         <D>0.00000000e+000</D>
#         <M>0.0</M>
#         <CPcor>-9.57000000e-008</CPcor>
#       </Coefficients>
#       <Coefficients equation="1" >
#         <G>-1.00672082e+000</G>
#         <H>1.26906489e-001</H>
#         <I>-1.40584351e-004</I>
#         <J>2.47837121e-005</J>
#         <CPcor>-9.57000000e-008</CPcor>
#         <CTcor>3.2500e-006</CTcor>
#         <!-- WBOTC not applicable unless ConductivityType = 1. -->
#         <WBOTC>0.00000000e+000</WBOTC>
#       </Coefficients>
#       <Slope>1.00000000</Slope>
#       <Offset>0.00000</Offset>
#     </ConductivitySensor>
#   </sensor>
#   <sensor Channel="3" >
#     <!-- Count, Pressure, Strain Gauge -->
#     <PressureSensor SensorID="46" >
#       <SerialNumber>7809</SerialNumber>
#       <CalibrationDate>07-Mar-18</CalibrationDate>
#       <PA0>-4.08176359e-002</PA0>
#       <PA1>4.85188419e-004</PA1>
#       <PA2>-3.51168169e-012</PA2>
#       <PTEMPA0>-5.37806900e+001</PTEMPA0>
#       <PTEMPA1>5.36620721e+001</PTEMPA1>
#       <PTEMPA2>4.87214332e-002</PTEMPA2>
#       <PTCA0>5.25213435e+005</PTCA0>
#       <PTCA1>1.79532409e+000</PTCA1>
#       <PTCA2>-2.84353509e-001</PTCA2>
#       <PTCB0>2.51668750e+001</PTCB0>
#       <PTCB1>3.75000000e-004</PTCB1>
#       <PTCB2>0.00000000e+000</PTCB2>
#       <Offset>0.000000</Offset>
#     </PressureSensor>
#   </sensor>
#   <sensor Channel="4" >
#     <!-- A/D voltage 0, pH -->
#     <pH_Sensor SensorID="43" >
#       <SerialNumber>0363</SerialNumber>
#       <CalibrationDate>16-Mar-18</CalibrationDate>
#       <Slope>4.6194</Slope>
#       <Offset>2.5947</Offset>
#     </pH_Sensor>
#   </sensor>
#   <sensor Channel="5" >
#     <!-- A/D voltage 1, Oxidation Reduction Potential -->
#     <OxidationReductionPotentialSensor SensorID="41" >
#       <SerialNumber>0363</SerialNumber>
#       <CalibrationDate>16-Mar-18</CalibrationDate>
#       <B>2.499480</B>
#       <M>-0.496195</M>
#       <Offset>0.0</Offset>
#     </OxidationReductionPotentialSensor>
#   </sensor>
#   <sensor Channel="6" >
#     <!-- A/D voltage 2, Oxygen, SBE 43 -->
#     <OxygenSensor SensorID="38" >
#       <SerialNumber>0434</SerialNumber>
#       <CalibrationDate>13-Mar-18</CalibrationDate>
#       <Use2007Equation>1</Use2007Equation>
#       <CalibrationCoefficients equation="0" >
#         <!-- Coefficients for Owens-Millard equation. -->
#         <Boc>0.0000</Boc>
#         <Soc>0.0000e+000</Soc>
#         <offset>0.0000</offset>
#         <Pcor>0.00e+000</Pcor>
#         <Tcor>0.0000</Tcor>
#         <Tau>0.0</Tau>
#       </CalibrationCoefficients>
#       <CalibrationCoefficients equation="1" >
#         <!-- Coefficients for Sea-Bird equation - SBE calibration in 2007 and later. -->
#         <Soc>4.5718e-001</Soc>
#         <offset>-0.6113</offset>
#         <A>-4.0649e-003</A>
#         <B> 2.0945e-004</B>
#         <C>-3.3182e-006</C>
#         <D0> 2.5826e+000</D0>
#         <D1> 1.92634e-004</D1>
#         <D2>-4.64803e-002</D2>
#         <E> 3.6000e-002</E>
#         <Tau20> 1.2200</Tau20>
#         <H1>-3.3000e-002</H1>
#         <H2> 5.0000e+003</H2>
#         <H3> 1.4500e+003</H3>
#       </CalibrationCoefficients>
#     </OxygenSensor>
#   </sensor>
#   <sensor Channel="7" >
#     <!-- A/D voltage 3, PAR/Logarithmic, Satlantic -->
#     <PARLog_SatlanticSensor SensorID="76" >
#       <SerialNumber>1122</SerialNumber>
#       <CalibrationDate>22-Jun-2017</CalibrationDate>
#       <a0>9.6090e-001</a0>
#       <a1>8.0780e-001</a1>
#       <Im>1.3589e+000</Im>
#       <Multiplier>1.0000e+000</Multiplier>
#     </PARLog_SatlanticSensor>
#   </sensor>
#   <sensor Channel="8" >
#     <!-- A/D voltage 4, Fluorometer, WET Labs ECO-AFL/FL -->
#     <FluoroWetlabECO_AFL_FL_Sensor SensorID="20" >
#       <SerialNumber>FLNTURT-2496</SerialNumber>
#       <CalibrationDate>25-Jan-2017</CalibrationDate>
#       <ScaleFactor>5.30000000e+001</ScaleFactor>
#       <!-- Dark output -->
#       <Vblank>0.0560</Vblank>
#     </FluoroWetlabECO_AFL_FL_Sensor>
#   </sensor>
#   <sensor Channel="9" >
#     <!-- A/D voltage 5, Turbidity Meter, WET Labs, ECO-NTU -->
#     <TurbidityMeter SensorID="67" >
#       <SerialNumber>FLNTURT-2496</SerialNumber>
#       <CalibrationDate>25-Jan-2017</CalibrationDate>
#       <ScaleFactor>176.000000</ScaleFactor>
#       <!-- Dark output -->
#       <DarkVoltage>0.072000</DarkVoltage>
#     </TurbidityMeter>
#   </sensor>
# </Sensors>
# datcnv_date = Jun 14 2018 16:42:56, 7.26.7.114 [datcnv_vars = 14]
# datcnv_in = C:\DATA\061118_fcr50.hex C:\DATA\SBE19plusV2_7809.xmlcon
# datcnv_skipover = 0
# datcnv_ox_hysteresis_correction = yes
# datcnv_ox_tau_correction = yes
# filter_date = Jun 14 2018 16:44:33, 7.26.7.114
# filter_in = C:\DATA\061118_fcr50.cnv
# filter_low_pass_tc_A = 0.030
# filter_low_pass_tc_B = 0.150
# filter_low_pass_A_vars = prdM prdE tv290C
# filter_low_pass_B_vars = depFM dz/dtM sbeox0Mg/L sbeox0PS specc c0uS/cm flECO-AFL ph orp par/sat/log turbWETntu0
# alignctd_date = Jun 14 2018 16:45:24, 7.26.7.114
# alignctd_in = C:\DATA\061118_fcr50.cnv
# alignctd_adv = dz/dtM 1.000, sbeox0Mg/L 1.000, sbeox0PS 1.000, specc 1.000, c0uS/cm 1.000, flECO-AFL 1.000, ph 1.000, orp 1.000, turbWETntu0 1.000                                                                                 
# file_type = ascii
*END*
     -0.610 6.4806e-31     8.5642     96.261      0.704   0.649223    -0.1686      5.932 -1130.7372 2.3921e+02    -0.2118     -0.598     -0.867    21.1001 0.0000e+00
     -0.610 7.1287e-30     8.5643     96.262      0.705   0.650167    -0.1784      5.925 -1157.6805 2.3514e+02    -0.2250     -0.598     -0.867    21.1001 0.0000e+00
     -0.610 7.8416e-29     8.5642     96.261      0.717   0.661584    -0.1938      5.940 -1153.6800 2.3421e+02    -0.2142     -0.598     -0.867    21.1003 0.0000e+00
     -0.610 8.6257e-28     8.5651     96.272      0.716   0.660439    -0.1979      5.953 -1140.7871 2.3268e+02    -0.1724     -0.598     -0.868    21.1003 0.0000e+00
     -0.610 9.4883e-27     8.5654     96.275      0.690   0.636322    -0.1911      5.951 -1137.2201 2.3102e+02    -0.0864     -0.599     -0.868    21.1004 0.0000e+00
     -0.610 1.0437e-25     8.5647     96.268      0.677   0.623641    -0.1847      5.947 -1135.0716 2.3180e+02     0.0016     -0.598     -0.868    21.1006 0.0000e+00
     -0.610 1.1481e-24     8.5639     96.258      0.687   0.633931    -0.1759      5.945 -1135.3732 2.3551e+02     0.0380     -0.598     -0.868    21.1007 0.0000e+00
     -0.610 1.2629e-23     8.5632     96.250      0.687   0.633913    -0.1769      5.933 -1145.4278 2.4249e+02    -0.0426     -0.598     -0.867    21.1008 0.0000e+00
     -0.610 1.3892e-22     8.5637     96.255      0.676   0.623421    -0.1782      5.926 -1157.6955 2.4634e+02    -0.1797     -0.598     -0.867    21.1008 0.0000e+00
     -0.610 1.5281e-21     8.5642     96.258      0.687   0.633902    -0.1632      5.938 -1161.6117 2.4689e+02    -0.2168     -0.598     -0.868    21.1008 0.0000e+00
     -0.610 1.6809e-20     8.5637     96.252      0.687   0.633817    -0.1532      5.948 -1164.0404 2.5044e+02    -0.1862     -0.598     -0.867    21.1007 0.0000e+00
     -0.610 1.8490e-19     8.5652     96.268      0.675   0.622382    -0.1579      5.950 -1165.2932 2.5091e+02    -0.1749     -0.598     -0.867    21.1007 0.0000e+00
     -0.610 2.0339e-18     8.5679     96.298      0.675   0.622477    -0.1737      5.951 -1168.1550 2.4277e+02    -0.1727     -0.598     -0.868    21.0999 0.0000e+00
     -0.610 2.2373e-17     8.5701     96.323      0.689   0.634959    -0.1793      5.953 -1172.4867 2.3685e+02    -0.1601     -0.598     -0.868    21.0989 0.0000e+00
     -0.610 2.4610e-16     8.5705     96.328      0.701   0.646479    -0.1705      5.953 -1174.0450 2.4036e+02    -0.1751     -0.598     -0.867    21.0985 0.0000e+00
     -0.610 2.7071e-15     8.5696     96.318      0.689   0.634939    -0.1682      5.951 -1173.9189 2.4247e+02    -0.2006     -0.598     -0.867    21.0982 0.0000e+00
     -0.610 2.9778e-14     8.5696     96.319      0.675   0.622258    -0.1698      5.938 -1189.1156 2.3715e+02    -0.1937     -0.598     -0.867    21.0981 0.0000e+00
     -0.610 3.2756e-13     8.5694     96.317      0.673   0.619971    -0.1711      5.915 -1220.0383 2.3136e+02    -0.1836     -0.598     -0.867    21.0984 0.0000e+00
     -0.610 3.6032e-12     8.5676     96.297      0.659   0.607290    -0.1742      5.919 -1225.1554 2.2209e+02    -0.1692     -0.597     -0.866    21.0987 0.0000e+00
     -0.610 3.9635e-11     8.5655     96.274      0.646   0.595761    -0.1805      5.945 -1198.7603 2.0212e+02    -0.1726     -0.598     -0.867    21.0988 0.0000e+00
     -0.609 4.3598e-10     8.5655     96.274      0.659   0.607394    -0.1828      5.952 -1173.3839 1.7169e+02    -0.1943     -0.598     -0.867    21.0990 0.0000e+00
     -0.609 4.7958e-09     8.5666     96.287      0.674   0.621116    -0.1744      5.941 -1157.7793 1.3795e+02    -0.1870     -0.597     -0.866    21.0988 0.0000e+00
     -0.609 5.2754e-08     8.5655     96.275      0.689   0.634857    -0.1620      5.933 -1143.9632 1.1400e+02    -0.1767     -0.597     -0.866    21.0993 0.0000e+00
     -0.609 5.8030e-07     8.5638     96.255      0.702   0.646709    -0.1614      5.936 -1131.9513 1.0899e+02    -0.1913     -0.597     -0.866    21.0990 0.0000e+00
     -0.609      0.000     8.5647     96.266      0.692   0.637596    -0.1667      5.951 -1124.2228 1.1759e+02    -0.2108     -0.597     -0.865    21.0999 0.0000e+00
     -0.609      0.000     8.5671     96.294      0.707   0.651492    -0.1624      5.975 -1118.2324 1.2710e+02    -0.2293     -0.597     -0.866    21.0988 0.0000e+00
     -0.609      0.001     8.5677     96.306      1.020   0.941553    -0.1647      6.003 -1078.7948 1.3596e+02    -0.2314     -0.597     -0.866    21.1010 0.0000e+00
     -0.609      0.006     8.5614     96.302      4.340   4.017864    -0.1759      6.153  -617.5303 1.4944e+02    -0.2066     -0.597     -0.866    21.0979 0.0000e+00
     -0.609      0.023     8.5239     96.309     13.310  12.411655    -0.1784      6.507   119.6588 1.6767e+02    -0.1739     -0.598     -0.867    21.1033 0.0000e+00
     -0.609      0.058     8.4348     96.331     24.266  22.872224    -0.1768      6.915   349.0809 1.8770e+02    -0.1404     -0.596     -0.865    21.0945 0.0000e+00
     -0.606      0.108     8.3247     96.357     31.151  29.716120    -0.1742      7.255   259.2261 2.0848e+02    -0.1379     -0.598     -0.867    21.1086 0.0000e+00
     -0.588      0.167     8.2338     96.391     32.906  31.740118    -0.1465      7.470   251.1186 2.2970e+02    -0.0512     -0.592     -0.859    21.0852 0.0000e+00
     -0.537      0.221     8.1696     96.456     32.591  31.724225     0.1854      7.550   249.6766 2.4875e+02     1.5783     -0.537     -0.780    21.2000 0.0000e+00
     -0.454      0.260     8.1321     96.597     32.269  31.620211     0.8049      7.552   249.1901 2.6531e+02     4.6721     -0.451     -0.653    21.8793 0.0000e+00
     -0.354      0.277     8.1226     96.863     32.072  31.562466     1.1417      7.511   250.1413 2.8080e+02     6.3792     -0.347     -0.504    22.6940 0.0000e+00
     -0.259      0.269     8.1359     97.247     31.962  31.534292     1.1692      7.440   252.8314 2.9182e+02     6.4110     -0.241     -0.350    23.2618 0.0000e+00
     -0.187      0.236     8.1632     97.701     31.917  31.533716     1.2478      7.357   255.0444 2.9698e+02     5.0255     -0.175     -0.254    23.7124 0.0000e+00
     -0.140      0.190     8.1961     98.168     31.849  31.492055     1.4027      7.287   256.4199 2.9880e+02     2.4751     -0.133     -0.194    24.0307 0.0000e+00
     -0.106      0.141     8.2296     98.617     31.750  31.411661     1.4889      7.232   258.0195 2.9871e+02     1.0872     -0.100     -0.146    24.2293 0.0000e+00
     -0.081      0.099     8.2617     99.033     31.715  31.387315     1.4913      7.187   259.4146 2.9727e+02     0.9403     -0.076     -0.111    24.3426 0.0000e+00
     -0.065      0.069     8.2903     99.389     31.711  31.388228     1.4854      7.156   260.1241 2.9535e+02     0.8826     -0.062     -0.089    24.4042 0.0000e+00
     -0.053      0.048     8.3212     99.762     31.681  31.359195     1.4910      7.135   260.4021 2.9400e+02     0.8166     -0.054     -0.077    24.4383 0.0000e+00
     -0.043      0.032     8.3812    100.469     31.679  31.353819     1.5042      7.115   260.1952 2.9212e+02     0.7526     -0.041     -0.060    24.4635 0.0000e+00
     -0.037      0.017     8.4659    101.461     31.721  31.386730     1.5078      7.091   259.6876 2.8838e+02     0.7502     -0.035     -0.051    24.4813 0.0000e+00
     -0.034      0.005     8.5121    101.984     31.785  31.439566     1.4983      7.067   259.9428 2.6937e+02     0.7262     -0.034     -0.049    24.4873 0.0000e+00
     -0.034     -0.003     8.4685    101.432     31.840  31.484580     1.4903      7.046   261.0441 2.3517e+02     0.6754     -0.032     -0.046    24.4881 0.0000e+00
     -0.037     -0.009     8.3314     99.770     31.849  31.486411     1.4938      7.031   261.8185 2.1631e+02     0.6863     -0.032     -0.047    24.4832 0.0000e+00
     -0.047     -0.012     8.1327     97.378     31.829  31.461696     1.4948      7.023   262.2503 2.1575e+02     0.7055     -0.047     -0.069    24.4684 0.0000e+00
     -0.054     -0.013     7.8974     94.552     31.810  31.439785     1.4837      7.023   262.9098 2.1594e+02     0.6938     -0.059     -0.085    24.4504 0.0000e+00
     -0.054     -0.011     7.6408     91.481     31.781  31.411995     1.4778      7.026   263.9415 2.1533e+02     0.6977     -0.052     -0.074    24.4334 0.0000e+00
     -0.053     -0.008     7.3973     88.577     31.744  31.379732     1.4790      7.028   265.2601 2.1515e+02     0.7823     -0.050     -0.072    24.4228 0.0000e+00
     -0.056     -0.004     7.1918     86.125     31.728  31.367246     1.4800      7.029   266.1200 2.1405e+02     0.8622     -0.056     -0.082    24.4178 0.0000e+00
     -0.058     -0.004     7.0327     84.221     31.748  31.388044     1.4812      7.029   266.5088 2.1240e+02     0.8699     -0.058     -0.084    24.4101 0.0000e+00
     -0.057     -0.005     6.9207     82.882     31.800  31.440676     1.4749      7.033   267.1217 2.1109e+02     0.8766     -0.056     -0.082    24.4103 0.0000e+00
     -0.057     -0.006     6.8421     81.941     31.855  31.495556     1.4769      7.040   268.0232 2.0965e+02     0.8822     -0.054     -0.079    24.4220 0.0000e+00
     -0.059     -0.005     6.7786     81.182     31.904  31.543528     1.4970      7.046   269.0630 2.0812e+02     0.8767     -0.057     -0.082    24.4276 0.0000e+00
     -0.063     -0.004     6.7240     80.532     31.935  31.576136     1.5060      7.050   270.3156 2.0710e+02     0.8701     -0.063     -0.090    24.4262 0.0000e+00
     -0.065     -0.004     6.6732     79.933     31.927  31.572270     1.4946      7.055   271.6398 2.0656e+02     0.8026     -0.066     -0.095    24.4290 0.0000e+00
     -0.065     -0.003     6.6220     79.333     31.909  31.560309     1.4879      7.059   272.5980 2.0627e+02     0.7014     -0.065     -0.094    24.4295 0.0000e+00
     -0.064     -0.000     6.5792     78.835     31.902  31.558539     1.4892      7.062   273.0388 2.0629e+02     0.6839     -0.063     -0.091    24.4275 0.0000e+00
     -0.063      0.002     6.5557     78.565     31.889  31.550882     1.4918      7.067   273.1835 2.0651e+02     0.7137     -0.061     -0.089    24.4307 0.0000e+00
     -0.063      0.002     6.5549     78.565     31.865  31.531244     1.4999      7.070   273.3149 2.0689e+02     0.7247     -0.062     -0.089    24.4377 0.0000e+00
     -0.063      0.001     6.5769     78.836     31.841  31.511623     1.5138      7.070   273.5088 2.0729e+02     0.7870     -0.062     -0.090    24.4471 0.0000e+00
     -0.063      0.001     6.6200     79.360     31.830  31.504173     1.5322      7.069   273.8080 2.0756e+02     0.8869     -0.061     -0.089    24.4575 0.0000e+00
     -0.063      0.001     6.6783     80.065     31.828  31.504683     1.5377      7.069   274.1785 2.0783e+02     0.9254     -0.061     -0.088    24.4658 0.0000e+00
     -0.063      0.001     6.7423     80.838     31.839  31.517800     1.5346      7.067   274.6334 2.0832e+02     0.9172     -0.062     -0.089    24.4718 0.0000e+00
     -0.063      0.001     6.8039     81.580     31.856  31.535754     1.5406      7.064   275.1790 2.0886e+02     0.8489     -0.062     -0.089    24.4767 0.0000e+00
     -0.062      0.001     6.8564     82.208     31.852  31.531230     1.5463      7.061   275.5268 2.0941e+02     0.7413     -0.061     -0.088    24.4819 0.0000e+00
