* Sea-Bird SBE19plus  Data File:
* FileName = C:\DATA\061418_bvr50_0008.hex
* Software version 2.6.3.104 SB_Terminal.dll
* Temperature SN = 7809
* Conductivity SN = 7809
* System UpLoad Time = Jun 14 2018 16:27:43
* <ApplicationData>
* <Seaterm232>
* <SoftwareVersion>2.6.3.104</SoftwareVersion>
* <BuildDate>30-Jun-2017</BuildDate>
* </Seaterm232>
* </ApplicationData>
* cast   8 14 Jun 2018 17:39:24 samples 5362 to 6117, avg = 1, stop = mag switch
# nquan = 15
# nvalues = 621                         
# units = specified
# name 0 = depFM: Depth [fresh water, m]
# name 1 = dz/dtM: Descent Rate [m/s]
# name 2 = sbeox0Mg/L: Oxygen, SBE 43 [mg/l]
# name 3 = sbeox0PS: Oxygen, SBE 43 [% saturation]
# name 4 = specc: Specific Conductance [uS/cm]
# name 5 = c0uS/cm: Conductivity [uS/cm]
# name 6 = flECO-AFL: Fluorescence, WET Labs ECO-AFL/FL [mg/m^3]
# name 7 = ph: pH
# name 8 = orp: Oxidation Reduction Potential [mV]
# name 9 = par/sat/log: PAR/Logarithmic, Satlantic
# name 10 = turbWETntu0: Turbidity, WET Labs ECO [NTU]
# name 11 = prdM: Pressure, Strain Gauge [db]
# name 12 = prdE: Pressure, Strain Gauge [psi]
# name 13 = tv290C: Temperature [ITS-90, deg C]
# name 14 = flag:  0.000e+00
# span 0 =     -0.576,      9.710       
# span 1 =     -0.095,      0.222       
# span 2 =     3.9090,    10.8224       
# span 3 =     35.697,    120.260       
# span 4 =      0.405,     48.818       
# span 5 =   0.429591,  34.714921       
# span 6 =    -0.1961,     8.0098       
# span 7 =      6.254,      7.804       
# span 8 = -1240.7455,  1240.1178       
# span 9 = 1.2536e-01, 2.9124e+02       
# span 10 =    -0.2785,    65.8789      
# span 11 =     -0.565,      9.523      
# span 12 =     -0.819,     13.812      
# span 13 =    10.4832,    27.9911      
# span 14 = 0.0000e+00, 0.0000e+00      
# interval = seconds: 0.25
# start_time = Jun 14 2018 17:39:24 [Instrument's time stamp, header]
# bad_flag = -9.990e-29
# <Sensors count="9" >
#   <sensor Channel="1" >
#     <!-- Count, Temperature -->
#     <TemperatureSensor SensorID="58" >
#       <SerialNumber>7809</SerialNumber>
#       <CalibrationDate>09-Mar-18</CalibrationDate>
#       <A0>1.21093245e-003</A0>
#       <A1>2.84356597e-004</A1>
#       <A2>-1.94507398e-006</A2>
#       <A3>2.12806664e-007</A3>
#       <Slope>1.00000000</Slope>
#       <Offset>0.0000</Offset>
#     </TemperatureSensor>
#   </sensor>
#   <sensor Channel="2" >
#     <!-- Frequency 0, Conductivity -->
#     <ConductivitySensor SensorID="3" >
#       <SerialNumber>7809</SerialNumber>
#       <CalibrationDate>09-Mar-18</CalibrationDate>
#       <UseG_J>1</UseG_J>
#       <!-- Cell const and series R are applicable only for wide range sensors. -->
#       <SeriesR>0.0000</SeriesR>
#       <CellConst>2000.0000</CellConst>
#       <ConductivityType>0</ConductivityType>
#       <Coefficients equation="0" >
#         <A>0.00000000e+000</A>
#         <B>0.00000000e+000</B>
#         <C>0.00000000e+000</C>
#         <D>0.00000000e+000</D>
#         <M>0.0</M>
#         <CPcor>-9.57000000e-008</CPcor>
#       </Coefficients>
#       <Coefficients equation="1" >
#         <G>-1.00672082e+000</G>
#         <H>1.26906489e-001</H>
#         <I>-1.40584351e-004</I>
#         <J>2.47837121e-005</J>
#         <CPcor>-9.57000000e-008</CPcor>
#         <CTcor>3.2500e-006</CTcor>
#         <!-- WBOTC not applicable unless ConductivityType = 1. -->
#         <WBOTC>0.00000000e+000</WBOTC>
#       </Coefficients>
#       <Slope>1.00000000</Slope>
#       <Offset>0.00000</Offset>
#     </ConductivitySensor>
#   </sensor>
#   <sensor Channel="3" >
#     <!-- Count, Pressure, Strain Gauge -->
#     <PressureSensor SensorID="46" >
#       <SerialNumber>7809</SerialNumber>
#       <CalibrationDate>07-Mar-18</CalibrationDate>
#       <PA0>-4.08176359e-002</PA0>
#       <PA1>4.85188419e-004</PA1>
#       <PA2>-3.51168169e-012</PA2>
#       <PTEMPA0>-5.37806900e+001</PTEMPA0>
#       <PTEMPA1>5.36620721e+001</PTEMPA1>
#       <PTEMPA2>4.87214332e-002</PTEMPA2>
#       <PTCA0>5.25213435e+005</PTCA0>
#       <PTCA1>1.79532409e+000</PTCA1>
#       <PTCA2>-2.84353509e-001</PTCA2>
#       <PTCB0>2.51668750e+001</PTCB0>
#       <PTCB1>3.75000000e-004</PTCB1>
#       <PTCB2>0.00000000e+000</PTCB2>
#       <Offset>0.000000</Offset>
#     </PressureSensor>
#   </sensor>
#   <sensor Channel="4" >
#     <!-- A/D voltage 0, pH -->
#     <pH_Sensor SensorID="43" >
#       <SerialNumber>0363</SerialNumber>
#       <CalibrationDate>16-Mar-18</CalibrationDate>
#       <Slope>4.6194</Slope>
#       <Offset>2.5947</Offset>
#     </pH_Sensor>
#   </sensor>
#   <sensor Channel="5" >
#     <!-- A/D voltage 1, Oxidation Reduction Potential -->
#     <OxidationReductionPotentialSensor SensorID="41" >
#       <SerialNumber>0363</SerialNumber>
#       <CalibrationDate>16-Mar-18</CalibrationDate>
#       <B>2.499480</B>
#       <M>-0.496195</M>
#       <Offset>0.0</Offset>
#     </OxidationReductionPotentialSensor>
#   </sensor>
#   <sensor Channel="6" >
#     <!-- A/D voltage 2, Oxygen, SBE 43 -->
#     <OxygenSensor SensorID="38" >
#       <SerialNumber>0434</SerialNumber>
#       <CalibrationDate>13-Mar-18</CalibrationDate>
#       <Use2007Equation>1</Use2007Equation>
#       <CalibrationCoefficients equation="0" >
#         <!-- Coefficients for Owens-Millard equation. -->
#         <Boc>0.0000</Boc>
#         <Soc>0.0000e+000</Soc>
#         <offset>0.0000</offset>
#         <Pcor>0.00e+000</Pcor>
#         <Tcor>0.0000</Tcor>
#         <Tau>0.0</Tau>
#       </CalibrationCoefficients>
#       <CalibrationCoefficients equation="1" >
#         <!-- Coefficients for Sea-Bird equation - SBE calibration in 2007 and later. -->
#         <Soc>4.5718e-001</Soc>
#         <offset>-0.6113</offset>
#         <A>-4.0649e-003</A>
#         <B> 2.0945e-004</B>
#         <C>-3.3182e-006</C>
#         <D0> 2.5826e+000</D0>
#         <D1> 1.92634e-004</D1>
#         <D2>-4.64803e-002</D2>
#         <E> 3.6000e-002</E>
#         <Tau20> 1.2200</Tau20>
#         <H1>-3.3000e-002</H1>
#         <H2> 5.0000e+003</H2>
#         <H3> 1.4500e+003</H3>
#       </CalibrationCoefficients>
#     </OxygenSensor>
#   </sensor>
#   <sensor Channel="7" >
#     <!-- A/D voltage 3, PAR/Logarithmic, Satlantic -->
#     <PARLog_SatlanticSensor SensorID="76" >
#       <SerialNumber>1122</SerialNumber>
#       <CalibrationDate>22-Jun-2017</CalibrationDate>
#       <a0>9.6090e-001</a0>
#       <a1>8.0780e-001</a1>
#       <Im>1.3589e+000</Im>
#       <Multiplier>1.0000e+000</Multiplier>
#     </PARLog_SatlanticSensor>
#   </sensor>
#   <sensor Channel="8" >
#     <!-- A/D voltage 4, Fluorometer, WET Labs ECO-AFL/FL -->
#     <FluoroWetlabECO_AFL_FL_Sensor SensorID="20" >
#       <SerialNumber>FLNTURT-2496</SerialNumber>
#       <CalibrationDate>25-Jan-2017</CalibrationDate>
#       <ScaleFactor>5.30000000e+001</ScaleFactor>
#       <!-- Dark output -->
#       <Vblank>0.0560</Vblank>
#     </FluoroWetlabECO_AFL_FL_Sensor>
#   </sensor>
#   <sensor Channel="9" >
#     <!-- A/D voltage 5, Turbidity Meter, WET Labs, ECO-NTU -->
#     <TurbidityMeter SensorID="67" >
#       <SerialNumber>FLNTURT-2496</SerialNumber>
#       <CalibrationDate>25-Jan-2017</CalibrationDate>
#       <ScaleFactor>176.000000</ScaleFactor>
#       <!-- Dark output -->
#       <DarkVoltage>0.072000</DarkVoltage>
#     </TurbidityMeter>
#   </sensor>
# </Sensors>
# datcnv_date = Jun 14 2018 16:42:57, 7.26.7.114 [datcnv_vars = 14]
# datcnv_in = C:\DATA\061418_fcr50.hex C:\DATA\SBE19plusV2_7809.xmlcon
# datcnv_skipover = 0
# datcnv_ox_hysteresis_correction = yes
# datcnv_ox_tau_correction = yes
# filter_date = Jun 14 2018 16:44:34, 7.26.7.114
# filter_in = C:\DATA\061418_fcr50.cnv
# filter_low_pass_tc_A = 0.030
# filter_low_pass_tc_B = 0.150
# filter_low_pass_A_vars = prdM prdE tv290C
# filter_low_pass_B_vars = depFM dz/dtM sbeox0Mg/L sbeox0PS specc c0uS/cm flECO-AFL ph orp par/sat/log turbWETntu0
# alignctd_date = Jun 14 2018 16:45:25, 7.26.7.114
# alignctd_in = C:\DATA\061418_fcr50.cnv
# alignctd_adv = dz/dtM 1.000, sbeox0Mg/L 1.000, sbeox0PS 1.000, specc 1.000, c0uS/cm 1.000, flECO-AFL 1.000, ph 1.000, orp 1.000, turbWETntu0 1.000                                                                                 
# file_type = ascii
*END*
     -0.576 5.8326e-35     7.5891     96.944      0.467   0.494303    -0.1537      6.341 -1240.7455 2.6440e+02    -0.2261     -0.565     -0.819    27.9911 0.0000e+00
     -0.576 6.4158e-34     7.5891     96.943      0.457   0.484010    -0.1543      6.341 -1240.7455 2.6504e+02    -0.2426     -0.565     -0.819    27.9907 0.0000e+00
     -0.575 7.0574e-33     7.5909     96.965      0.468   0.495642    -0.1520      6.341 -1240.7455 2.7669e+02    -0.2422     -0.564     -0.818    27.9908 0.0000e+00
     -0.575 7.7632e-32     7.5918     96.976      0.480   0.508124    -0.1537      6.342 -1240.7455 2.8917e+02    -0.2214     -0.564     -0.818    27.9907 0.0000e+00
     -0.575 8.5395e-31     7.5918     96.976      0.480   0.508114    -0.1652      6.343 -1240.7455 2.8320e+02    -0.2044     -0.565     -0.819    27.9905 0.0000e+00
     -0.575 9.3934e-30     7.5893     96.943      0.468   0.495527    -0.1815      6.343 -1240.7455 2.6363e+02    -0.2198     -0.564     -0.818    27.9905 0.0000e+00
     -0.575 1.0333e-28     7.5850     96.889      0.456   0.482749    -0.1850      6.343 -1240.7455 2.5061e+02    -0.2238     -0.564     -0.818    27.9905 0.0000e+00
     -0.575 1.1366e-27     7.5853     96.893      0.454   0.480444    -0.1885      6.343 -1240.7455 2.4779e+02    -0.2234     -0.564     -0.818    27.9903 0.0000e+00
     -0.575 1.2503e-26     7.5886     96.934      0.441   0.467657    -0.1961      6.342 -1240.7455 2.4944e+02    -0.2454     -0.564     -0.818    27.9901 0.0000e+00
     -0.575 1.3753e-25     7.5884     96.930      0.429   0.454967    -0.1852      6.342 -1240.7455 2.5539e+02    -0.2146     -0.564     -0.819    27.9900 0.0000e+00
     -0.575 1.5128e-24     7.5865     96.905      0.428   0.453823    -0.1672      6.343 -1240.7455 2.5986e+02    -0.1564     -0.564     -0.818    27.9895 0.0000e+00
     -0.575 1.6641e-23     7.5866     96.905      0.428   0.453822    -0.1621      6.343 -1240.7455 2.4619e+02    -0.1828     -0.563     -0.817    27.9890 0.0000e+00
     -0.575 1.8305e-22     7.5876     96.917      0.429   0.454956    -0.1611      6.343 -1240.7455 2.0889e+02    -0.2286     -0.563     -0.817    27.9886 0.0000e+00
     -0.575 2.0136e-21     7.5896     96.941      0.441   0.467532    -0.1631      6.342 -1240.7455 1.6788e+02    -0.2225     -0.564     -0.818    27.9882 0.0000e+00
     -0.574 2.2149e-20     7.5918     96.969      0.452   0.479061    -0.1684      6.342 -1240.7455 1.4285e+02    -0.2306     -0.563     -0.817    27.9878 0.0000e+00
     -0.574 2.4364e-19     7.5926     96.978      0.441   0.467532    -0.1709      6.342 -1240.7455 1.3674e+02    -0.2653     -0.563     -0.817    27.9873 0.0000e+00
     -0.574 2.6801e-18     7.5926     96.977      0.429   0.454956    -0.1745      6.342 -1240.7455 1.4314e+02    -0.2764     -0.563     -0.817    27.9868 0.0000e+00
     -0.574 2.9481e-17     7.5928     96.980      0.428   0.453822    -0.1745      6.342 -1240.7455 1.5389e+02    -0.2733     -0.563     -0.817    27.9865 0.0000e+00
     -0.574 3.2429e-16     7.5927     96.979      0.428   0.453821    -0.1712      6.342 -1240.7455 1.6420e+02    -0.2574     -0.563     -0.817    27.9858 0.0000e+00
     -0.574 3.5672e-15     7.5921     96.969      0.429   0.454945    -0.1720      6.342 -1240.7455 1.7222e+02    -0.2368     -0.563     -0.817    27.9850 0.0000e+00
     -0.574 3.9239e-14     7.5917     96.964      0.441   0.467418    -0.1750      6.343 -1240.7455 1.7922e+02    -0.2377     -0.564     -0.818    27.9847 0.0000e+00
     -0.574 4.3163e-13     7.5910     96.955      0.451   0.477803    -0.1704      6.344 -1240.7455 1.8561e+02    -0.2381     -0.563     -0.817    27.9844 0.0000e+00
     -0.574 4.7479e-12     7.5903     96.945      0.428   0.453697    -0.1622      6.345 -1240.7455 1.8975e+02    -0.2118     -0.564     -0.818    27.9842 0.0000e+00
     -0.574 5.2227e-11     7.5912     96.956      0.405   0.429591    -0.1581      6.345 -1240.7455 1.9322e+02    -0.1638     -0.563     -0.817    27.9838 0.0000e+00
     -0.574 5.7449e-10     7.5932     96.981      0.415   0.439976    -0.1574      6.346 -1240.7455 1.9870e+02    -0.1459     -0.563     -0.816    27.9835 0.0000e+00
     -0.574 6.3194e-09     7.5933     96.981      0.427   0.452449    -0.1536      6.346 -1240.7454 2.0583e+02    -0.1783     -0.563     -0.817    27.9833 0.0000e+00
     -0.574 6.9514e-08     7.5918     96.961      0.428   0.453574    -0.1501      6.347 -1240.7446 2.1196e+02    -0.2190     -0.564     -0.818    27.9827 0.0000e+00
     -0.574 7.6465e-07     7.5908     96.948      0.428   0.453585    -0.1604      6.348 -1240.7359 2.1709e+02    -0.2417     -0.563     -0.817    27.9826 0.0000e+00
     -0.574      0.000     7.5908     96.949      0.427   0.452580    -0.1680      6.348 -1240.6395 2.2339e+02    -0.2387     -0.564     -0.818    27.9821 0.0000e+00
     -0.574      0.000     7.5913     96.954      0.416   0.441421    -0.1689      6.348 -1239.5792 2.3047e+02    -0.2442     -0.563     -0.817    27.9823 0.0000e+00
     -0.574      0.001     7.5914     96.950      0.420   0.445484    -0.1706      6.361 -1227.9157 2.3627e+02    -0.2785     -0.563     -0.817    27.9811 0.0000e+00
     -0.574      0.006     7.5941     96.938      0.595   0.628524    -0.1611      6.526 -1099.6174 2.4076e+02    -0.2564     -0.563     -0.816    27.9820 0.0000e+00
     -0.574      0.018     7.6114     96.934      2.405   2.527721    -0.1465      6.815  -867.4174 2.4561e+02    -0.1902     -0.564     -0.817    27.9795 0.0000e+00
     -0.574      0.035     7.6487     96.947      7.637   7.997259    -0.1405      6.940  -737.4432 2.5099e+02    -0.1803     -0.563     -0.817    27.9831 0.0000e+00
     -0.570      0.051     7.6889     96.959     13.639  14.238806    -0.1436      6.945  -675.5295 2.5718e+02    -0.1980     -0.564     -0.818    27.9766 0.0000e+00
     -0.554      0.065     7.7173     96.959     18.190  18.931037    -0.1476      6.966  -247.7112 2.6394e+02    -0.2205     -0.552     -0.801    27.9860 0.0000e+00
     -0.522      0.076     7.7358     96.964     23.411  24.306737    -0.1526      6.981   572.3673 2.6828e+02    -0.2398     -0.509     -0.738    27.8945 0.0000e+00
     -0.492      0.081     7.7491     96.975     27.136  28.133709    -0.1576      7.047  1115.2826 2.6931e+02    -0.2474     -0.477     -0.691    27.5522 0.0000e+00
     -0.473      0.077     7.7590     96.981     27.653  28.635160    -0.1621      7.192  1228.8706 2.6921e+02    -0.2524     -0.463     -0.672    27.2209 0.0000e+00
     -0.457      0.062     7.7669     96.989     25.551  26.433285    -0.1703      7.357  1239.1953 2.6921e+02    -0.2389     -0.450     -0.653    27.0364 0.0000e+00
     -0.439      0.041     7.7735     97.008     20.741  21.443687    -0.1648      7.502  1240.1178 2.6802e+02    -0.2359     -0.429     -0.622    26.9113 0.0000e+00
     -0.426      0.020     7.7770     97.019     17.616  18.204357    -0.1509      7.615  1240.0243 2.6553e+02    -0.2166     -0.412     -0.597    26.8307 0.0000e+00
     -0.425      0.006     7.7774     97.019     17.598  18.184187    -0.1487      7.689  1238.0653 2.6265e+02    -0.1890     -0.416     -0.603    26.7637 0.0000e+00
     -0.431     -0.002     7.7779     97.034     20.944  21.644068    -0.1567      7.720  1216.4318 2.5810e+02    -0.2066     -0.419     -0.607    26.7106 0.0000e+00
     -0.444     -0.003     7.7780     97.040     27.563  28.484820    -0.1649      7.740   978.4551 2.5398e+02    -0.2166     -0.435     -0.631    26.6763 0.0000e+00
     -0.454      0.004     7.7783     97.043     31.957  33.025453    -0.1563      7.776   539.3960 2.5293e+02    -0.1570     -0.453     -0.657    26.6557 0.0000e+00
     -0.450      0.018     7.7803     97.058     32.846  33.940015    -0.1453      7.804   296.4965 2.5308e+02    -0.0653     -0.442     -0.641    26.6583 0.0000e+00
     -0.438      0.034     7.7830     97.059     32.871  33.953651    -0.1504      7.796   272.0595 2.5277e+02    -0.0231     -0.428     -0.621    26.6665 0.0000e+00
     -0.424      0.045     7.7879     97.049     32.834  33.888983    -0.1629      7.765   268.0218 2.5280e+02    -0.0136     -0.418     -0.606    26.6665 0.0000e+00
     -0.407      0.047     7.7963     97.045     32.842  33.856753    -0.1773      7.732   266.1749 2.5321e+02     0.1410     -0.400     -0.580    26.6661 0.0000e+00
     -0.387      0.042     7.8068     97.056     32.910  33.881473    -0.1771      7.704   265.6460 2.5404e+02     0.4423     -0.377     -0.547    26.6636 0.0000e+00
     -0.372      0.033     7.8170     97.077     32.999  33.933743    -0.1694      7.678   264.8108 2.5537e+02     0.6081     -0.359     -0.521    26.6496 0.0000e+00
     -0.371      0.023     7.8253     97.096     33.076  33.980554    -0.1759      7.650   263.9059 2.5691e+02     0.6205     -0.362     -0.525    26.6088 0.0000e+00
     -0.374      0.010     7.8297     97.110     33.112  34.002801    -0.1827      7.626   263.3095 2.5825e+02     0.5617     -0.370     -0.536    26.5410 0.0000e+00
     -0.372     -0.002     7.8252     97.128     33.094  34.012148    -0.1786      7.612   262.5903 2.5821e+02     0.4466     -0.366     -0.531    26.4650 0.0000e+00
     -0.370     -0.008     7.8088     97.142     33.032  34.030100    -0.1718      7.602   262.3504 2.5695e+02     0.4188     -0.360     -0.521    26.4057 0.0000e+00
     -0.373     -0.008     7.7863     97.129     32.933  34.029435    -0.1738      7.591   262.6457 2.5588e+02     0.4703     -0.365     -0.527    26.3577 0.0000e+00
     -0.381     -0.005     7.7674     97.097     32.835  34.004266    -0.1754      7.580   262.1168 2.5567e+02     0.4891     -0.376     -0.544    26.3146 0.0000e+00
     -0.387      0.001     7.7574     97.075     32.773  33.979961    -0.1637      7.564   261.6348 2.5602e+02     0.4631     -0.380     -0.551    26.3427 0.0000e+00
     -0.387      0.012     7.7556     97.060     32.718  33.926176    -0.1516      7.544   261.9795 2.5652e+02     0.4303     -0.380     -0.552    26.4930 0.0000e+00
     -0.383      0.032     7.7627     97.044     32.633  33.798580    -0.1481      7.532   262.3272 2.5680e+02     0.5200     -0.377     -0.547    26.6785 0.0000e+00
     -0.375      0.056     7.7815     97.048     32.505  33.580430    -0.1121      7.524   262.7409 2.5742e+02     2.0045     -0.369     -0.536    26.7944 0.0000e+00
     -0.360      0.078     7.8140     97.102     32.380  33.320886     0.2925      7.513   262.0772 2.5956e+02    18.6848     -0.357     -0.518    26.8497 0.0000e+00
     -0.336      0.096     7.8589     97.224     32.358  33.137324     1.0220      7.498   259.9815 2.6344e+02    49.3040     -0.333     -0.483    26.8624 0.0000e+00
     -0.301      0.109     7.9107     97.417     32.458  33.075627     1.4110      7.484   257.6209 2.6756e+02    65.8789     -0.297     -0.431    26.8036 0.0000e+00
     -0.262      0.119     7.9635     97.677     32.605  33.082764     1.4483      7.478   255.6475 2.7059e+02    65.8290     -0.255     -0.369    26.6701 0.0000e+00
     -0.229      0.124     8.0138     97.991     32.728  33.096375     1.5283      7.480   255.3081 2.7339e+02    49.3106     -0.222     -0.321    26.4646 0.0000e+00
     -0.203      0.124     8.0585     98.319     32.824  33.113005     1.6703      7.484   256.2712 2.7631e+02    18.8696     -0.200     -0.290    26.2010 0.0000e+00
