* Sea-Bird SBE19plus  Data File:
* FileName = C:\DATA\072318_fcr50_0007.hex
* Software version 2.6.3.104 SB_Terminal.dll
* Temperature SN = 7809
* Conductivity SN = 7809
* System UpLoad Time = Jul 23 2018 15:35:00
* <ApplicationData>
* <Seaterm232>
* <SoftwareVersion>2.6.3.104</SoftwareVersion>
* <BuildDate>30-Jun-2017</BuildDate>
* </Seaterm232>
* </ApplicationData>
* cast   7 23 Jul 2018 15:21:50 samples 5148 to 6017, avg = 1, stop = mag switch
# nquan = 15
# nvalues = 737                         
# units = specified
# name 0 = depFM: Depth [fresh water, m]
# name 1 = dz/dtM: Descent Rate [m/s]
# name 2 = sbeox0Mg/L: Oxygen, SBE 43 [mg/l]
# name 3 = sbeox0PS: Oxygen, SBE 43 [% saturation]
# name 4 = specc: Specific Conductance [uS/cm]
# name 5 = c0uS/cm: Conductivity [uS/cm]
# name 6 = flECO-AFL: Fluorescence, WET Labs ECO-AFL/FL [mg/m^3]
# name 7 = ph: pH
# name 8 = orp: Oxidation Reduction Potential [mV]
# name 9 = par/sat/log: PAR/Logarithmic, Satlantic
# name 10 = turbWETntu0: Turbidity, WET Labs ECO [NTU]
# name 11 = prdM: Pressure, Strain Gauge [db]
# name 12 = prdE: Pressure, Strain Gauge [psi]
# name 13 = tv290C: Temperature [ITS-90, deg C]
# name 14 = flag:  0.000e+00
# span 0 =     -0.608,      7.411       
# span 1 =     -0.147,      0.147       
# span 2 =     1.3031,    13.6911       
# span 3 =     12.376,    161.087       
# span 4 =      0.675,     50.485       
# span 5 =   0.625410,  36.879908       
# span 6 =    -0.2021,    10.0006       
# span 7 =      6.152,      8.544       
# span 8 =    53.3908,   307.9206       
# span 9 = 1.2551e-01, 3.0751e+02       
# span 10 =    -0.4803,    18.7990      
# span 11 =     -0.596,      7.268      
# span 12 =     -0.865,     10.542      
# span 13 =    11.5161,    25.2278      
# span 14 = 0.0000e+00, 0.0000e+00      
# interval = seconds: 0.25
# start_time = Jul 23 2018 15:21:50 [Instrument's time stamp, header]
# bad_flag = -9.990e-29
# <Sensors count="9" >
#   <sensor Channel="1" >
#     <!-- Count, Temperature -->
#     <TemperatureSensor SensorID="58" >
#       <SerialNumber>7809</SerialNumber>
#       <CalibrationDate>09-Mar-18</CalibrationDate>
#       <A0>1.21093245e-003</A0>
#       <A1>2.84356597e-004</A1>
#       <A2>-1.94507398e-006</A2>
#       <A3>2.12806664e-007</A3>
#       <Slope>1.00000000</Slope>
#       <Offset>0.0000</Offset>
#     </TemperatureSensor>
#   </sensor>
#   <sensor Channel="2" >
#     <!-- Frequency 0, Conductivity -->
#     <ConductivitySensor SensorID="3" >
#       <SerialNumber>7809</SerialNumber>
#       <CalibrationDate>09-Mar-18</CalibrationDate>
#       <UseG_J>1</UseG_J>
#       <!-- Cell const and series R are applicable only for wide range sensors. -->
#       <SeriesR>0.0000</SeriesR>
#       <CellConst>2000.0000</CellConst>
#       <ConductivityType>0</ConductivityType>
#       <Coefficients equation="0" >
#         <A>0.00000000e+000</A>
#         <B>0.00000000e+000</B>
#         <C>0.00000000e+000</C>
#         <D>0.00000000e+000</D>
#         <M>0.0</M>
#         <CPcor>-9.57000000e-008</CPcor>
#       </Coefficients>
#       <Coefficients equation="1" >
#         <G>-1.00672082e+000</G>
#         <H>1.26906489e-001</H>
#         <I>-1.40584351e-004</I>
#         <J>2.47837121e-005</J>
#         <CPcor>-9.57000000e-008</CPcor>
#         <CTcor>3.2500e-006</CTcor>
#         <!-- WBOTC not applicable unless ConductivityType = 1. -->
#         <WBOTC>0.00000000e+000</WBOTC>
#       </Coefficients>
#       <Slope>1.00000000</Slope>
#       <Offset>0.00000</Offset>
#     </ConductivitySensor>
#   </sensor>
#   <sensor Channel="3" >
#     <!-- Count, Pressure, Strain Gauge -->
#     <PressureSensor SensorID="46" >
#       <SerialNumber>7809</SerialNumber>
#       <CalibrationDate>07-Mar-18</CalibrationDate>
#       <PA0>-4.08176359e-002</PA0>
#       <PA1>4.85188419e-004</PA1>
#       <PA2>-3.51168169e-012</PA2>
#       <PTEMPA0>-5.37806900e+001</PTEMPA0>
#       <PTEMPA1>5.36620721e+001</PTEMPA1>
#       <PTEMPA2>4.87214332e-002</PTEMPA2>
#       <PTCA0>5.25213435e+005</PTCA0>
#       <PTCA1>1.79532409e+000</PTCA1>
#       <PTCA2>-2.84353509e-001</PTCA2>
#       <PTCB0>2.51668750e+001</PTCB0>
#       <PTCB1>3.75000000e-004</PTCB1>
#       <PTCB2>0.00000000e+000</PTCB2>
#       <Offset>0.000000</Offset>
#     </PressureSensor>
#   </sensor>
#   <sensor Channel="4" >
#     <!-- A/D voltage 0, pH -->
#     <pH_Sensor SensorID="43" >
#       <SerialNumber>0363</SerialNumber>
#       <CalibrationDate>16-Mar-18</CalibrationDate>
#       <Slope>4.6194</Slope>
#       <Offset>2.5947</Offset>
#     </pH_Sensor>
#   </sensor>
#   <sensor Channel="5" >
#     <!-- A/D voltage 1, Oxidation Reduction Potential -->
#     <OxidationReductionPotentialSensor SensorID="41" >
#       <SerialNumber>0363</SerialNumber>
#       <CalibrationDate>16-Mar-18</CalibrationDate>
#       <B>2.499480</B>
#       <M>-0.496195</M>
#       <Offset>0.0</Offset>
#     </OxidationReductionPotentialSensor>
#   </sensor>
#   <sensor Channel="6" >
#     <!-- A/D voltage 2, Oxygen, SBE 43 -->
#     <OxygenSensor SensorID="38" >
#       <SerialNumber>0434</SerialNumber>
#       <CalibrationDate>13-Mar-18</CalibrationDate>
#       <Use2007Equation>1</Use2007Equation>
#       <CalibrationCoefficients equation="0" >
#         <!-- Coefficients for Owens-Millard equation. -->
#         <Boc>0.0000</Boc>
#         <Soc>0.0000e+000</Soc>
#         <offset>0.0000</offset>
#         <Pcor>0.00e+000</Pcor>
#         <Tcor>0.0000</Tcor>
#         <Tau>0.0</Tau>
#       </CalibrationCoefficients>
#       <CalibrationCoefficients equation="1" >
#         <!-- Coefficients for Sea-Bird equation - SBE calibration in 2007 and later. -->
#         <Soc>4.5718e-001</Soc>
#         <offset>-0.6113</offset>
#         <A>-4.0649e-003</A>
#         <B> 2.0945e-004</B>
#         <C>-3.3182e-006</C>
#         <D0> 2.5826e+000</D0>
#         <D1> 1.92634e-004</D1>
#         <D2>-4.64803e-002</D2>
#         <E> 3.6000e-002</E>
#         <Tau20> 1.2200</Tau20>
#         <H1>-3.3000e-002</H1>
#         <H2> 5.0000e+003</H2>
#         <H3> 1.4500e+003</H3>
#       </CalibrationCoefficients>
#     </OxygenSensor>
#   </sensor>
#   <sensor Channel="7" >
#     <!-- A/D voltage 3, PAR/Logarithmic, Satlantic -->
#     <PARLog_SatlanticSensor SensorID="76" >
#       <SerialNumber>1122</SerialNumber>
#       <CalibrationDate>22-Jun-2017</CalibrationDate>
#       <a0>9.6090e-001</a0>
#       <a1>8.0780e-001</a1>
#       <Im>1.3589e+000</Im>
#       <Multiplier>1.0000e+000</Multiplier>
#     </PARLog_SatlanticSensor>
#   </sensor>
#   <sensor Channel="8" >
#     <!-- A/D voltage 4, Fluorometer, WET Labs ECO-AFL/FL -->
#     <FluoroWetlabECO_AFL_FL_Sensor SensorID="20" >
#       <SerialNumber>FLNTURT-2496</SerialNumber>
#       <CalibrationDate>25-Jan-2017</CalibrationDate>
#       <ScaleFactor>5.30000000e+001</ScaleFactor>
#       <!-- Dark output -->
#       <Vblank>0.0560</Vblank>
#     </FluoroWetlabECO_AFL_FL_Sensor>
#   </sensor>
#   <sensor Channel="9" >
#     <!-- A/D voltage 5, Turbidity Meter, WET Labs, ECO-NTU -->
#     <TurbidityMeter SensorID="67" >
#       <SerialNumber>FLNTURT-2496</SerialNumber>
#       <CalibrationDate>25-Jan-2017</CalibrationDate>
#       <ScaleFactor>176.000000</ScaleFactor>
#       <!-- Dark output -->
#       <DarkVoltage>0.072000</DarkVoltage>
#     </TurbidityMeter>
#   </sensor>
# </Sensors>
# datcnv_date = Jul 23 2018 15:39:16, 7.26.7.114 [datcnv_vars = 14]
# datcnv_in = C:\DATA\072318_fcr45.hex C:\DATA\SBE19plusV2_7809.xmlcon
# datcnv_skipover = 0
# datcnv_ox_hysteresis_correction = yes
# datcnv_ox_tau_correction = yes
# filter_date = Jul 23 2018 15:39:39, 7.26.7.114
# filter_in = C:\DATA\072318_fcr45.cnv
# filter_low_pass_tc_A = 0.030
# filter_low_pass_tc_B = 0.150
# filter_low_pass_A_vars = prdM prdE tv290C
# filter_low_pass_B_vars = depFM dz/dtM sbeox0Mg/L sbeox0PS specc c0uS/cm flECO-AFL ph orp par/sat/log turbWETntu0
# alignctd_date = Jul 23 2018 15:40:00, 7.26.7.114
# alignctd_in = C:\DATA\072318_fcr45.cnv
# alignctd_adv = dz/dtM 1.000, sbeox0Mg/L 1.000, sbeox0PS 1.000, specc 1.000, c0uS/cm 1.000, flECO-AFL 1.000, ph 1.000, orp 1.000, turbWETntu0 1.000                                                                                 
# file_type = ascii
*END*
     -0.606 -2.797e-11     8.5910     97.001      0.862   0.798443    -0.1867      6.736    54.6085 1.4198e+02    -0.2235     -0.595     -0.862    21.3347 0.0000e+00
     -0.606 -3.077e-10     8.5913     97.004      0.825   0.765002    -0.1821      6.745    54.1946 1.4092e+02    -0.1976     -0.594     -0.862    21.3343 0.0000e+00
     -0.606 -3.384e-09     8.5908     96.999      0.763   0.707972    -0.1787      6.755    53.3908 1.3822e+02    -0.2343     -0.595     -0.863    21.3340 0.0000e+00
     -0.606 -3.723e-08     8.5904     96.994      0.733   0.679615    -0.1825      6.772    54.0965 1.3586e+02    -0.3313     -0.594     -0.862    21.3338 0.0000e+00
     -0.606 -4.095e-07     8.5911     97.002      0.729   0.675792    -0.1910      6.794    58.8548 1.3666e+02    -0.4248     -0.595     -0.862    21.3335 0.0000e+00
     -0.606     -0.000     8.5924     97.017      0.714   0.661745    -0.1904      6.814    66.0964 1.4370e+02    -0.4803     -0.595     -0.862    21.3333 0.0000e+00
     -0.606     -0.000     8.5925     97.019      0.687   0.636600    -0.1834      6.821    71.6185 1.5351e+02    -0.4521     -0.595     -0.863    21.3333 0.0000e+00
     -0.606     -0.001     8.5929     97.023      0.675   0.625410    -0.1805      6.815    74.4276 1.5379e+02    -0.3590     -0.595     -0.862    21.3332 0.0000e+00
     -0.607     -0.001     8.5940     97.036      0.705   0.653276    -0.1831      6.803    76.4869 1.4281e+02    -0.2695     -0.595     -0.863    21.3333 0.0000e+00
     -0.607     -0.001     8.5944     97.040      0.777   0.719874    -0.1870      6.794    78.5358 1.3442e+02    -0.2553     -0.595     -0.863    21.3335 0.0000e+00
     -0.607     -0.000     8.5942     97.038      0.859   0.796523    -0.1817      6.790    80.1856 1.3242e+02    -0.2790     -0.596     -0.864    21.3334 0.0000e+00
     -0.607 -1.851e-08     8.5929     97.024      0.952   0.882489    -0.1744      6.792    81.4636 1.2736e+02    -0.2812     -0.595     -0.863    21.3335 0.0000e+00
     -0.607 -2.037e-07     8.5913     97.006      1.077   0.998330    -0.1817      6.802    84.2661 1.1577e+02    -0.2821     -0.596     -0.864    21.3335 0.0000e+00
     -0.607 -1.927e-07     8.5903     96.996      1.207   1.119120    -0.1873      6.817    89.7209 1.1148e+02    -0.2596     -0.596     -0.864    21.3337 0.0000e+00
     -0.607 1.1367e-07     8.5887     96.978      1.296   1.201517    -0.1776      6.834    95.9654 1.2208e+02    -0.2223     -0.596     -0.864    21.3335 0.0000e+00
     -0.607      0.000     8.5875     96.964      1.331   1.233623    -0.1741      6.848   101.6912 1.3493e+02    -0.2888     -0.595     -0.863    21.3340 0.0000e+00
     -0.607      0.000     8.5875     96.964      1.352   1.253650    -0.1914      6.859   106.8969 1.4718e+02    -0.4226     -0.596     -0.864    21.3333 0.0000e+00
     -0.607      0.000     8.5870     96.961      1.556   1.443669    -0.2021      6.870   113.0484 1.6051e+02    -0.4673     -0.596     -0.865    21.3348 0.0000e+00
     -0.607      0.002     8.5835     96.961      2.500   2.326242    -0.1843      6.890   120.4871 1.7342e+02    -0.4323     -0.596     -0.864    21.3329 0.0000e+00
     -0.608      0.011     8.5584     96.984      8.659   8.119833    -0.1696      6.991   136.3529 1.8693e+02    -0.3660     -0.596     -0.865    21.3361 0.0000e+00
     -0.608      0.034     8.4834     97.013     21.722  20.545310    -0.1809      7.299   164.2060 1.9948e+02    -0.2763     -0.596     -0.864    21.3308 0.0000e+00
     -0.607      0.068     8.3724     97.034     32.396  30.971260    -0.1923      7.751   182.5332 2.0946e+02    -0.2022     -0.596     -0.865    21.3399 0.0000e+00
     -0.600      0.101     8.2717     97.076     35.554  34.393882    -0.1874      8.118   185.6092 2.1599e+02    -0.1711     -0.596     -0.865    21.3255 0.0000e+00
     -0.570      0.125     8.2013     97.137     35.639  34.813563    -0.1859      8.326   189.2658 2.2650e+02    -0.1442     -0.574     -0.832    21.3786 0.0000e+00
     -0.510      0.137     8.1538     97.201     35.480  34.902733    -0.1929      8.431   186.6505 2.4505e+02     0.0618     -0.502     -0.729    21.8914 0.0000e+00
     -0.444      0.136     8.1221     97.273     35.299  34.900715    -0.1893      8.471   172.6582 2.6063e+02     0.4270     -0.423     -0.612    22.7308 0.0000e+00
     -0.403      0.125     8.1028     97.352     35.193  34.916453    -0.1790      8.476   161.3622 2.6866e+02     0.6699     -0.386     -0.558    23.4250 0.0000e+00
     -0.388      0.109     8.0927     97.448     35.158  34.966155    -0.1329      8.462   155.9004 2.7282e+02     1.1378     -0.379     -0.550    23.8808 0.0000e+00
     -0.380      0.097     8.0907     97.596     35.118  34.993628     0.4233      8.435   151.2748 2.7424e+02     5.7487     -0.373     -0.541    24.2107 0.0000e+00
     -0.370      0.099     8.0974     97.817     35.064  34.994642     1.4457      8.407   150.2599 2.7444e+02    14.1524     -0.365     -0.529    24.4595 0.0000e+00
     -0.351      0.115     8.1161     98.147     35.007  34.978486     2.0094      8.391   158.1704 2.7374e+02    18.7301     -0.352     -0.509    24.6180 0.0000e+00
     -0.315      0.135     8.1462     98.582     34.927  34.925387     2.1284      8.387   170.6024 2.6951e+02    18.7990     -0.316     -0.457    24.7291 0.0000e+00
     -0.265      0.147     8.1816     99.056     34.845  34.860827     2.7752      8.391   172.2038 2.6272e+02    14.5887     -0.261     -0.378    24.8227 0.0000e+00
     -0.212      0.143     8.2190     99.538     34.806  34.833108     3.9391      8.396   161.6156 2.5658e+02     6.7956     -0.205     -0.298    24.9028 0.0000e+00
     -0.165      0.125     8.2580    100.028     34.811  34.844329     4.5751      8.402   153.9161 2.5090e+02     2.5464     -0.157     -0.228    24.9595 0.0000e+00
     -0.132      0.097     8.3115    100.684     34.833  34.869474     4.6301      8.408   152.5021 2.4762e+02     2.1532     -0.123     -0.178    24.9958 0.0000e+00
     -0.117      0.066     8.3998    101.756     34.845  34.883067     4.6314      8.413   152.2620 2.4684e+02     2.1335     -0.110     -0.160    25.0206 0.0000e+00
     -0.115      0.042     8.4964    102.925     34.845  34.881640     4.6358      8.418   152.2182 2.4594e+02     2.1559     -0.112     -0.161    25.0343 0.0000e+00
     -0.117      0.027     8.5423    103.475     34.817  34.852215     4.6378      8.421   152.3165 2.4555e+02     2.1484     -0.115     -0.166    25.0438 0.0000e+00
     -0.117      0.021     8.5225    103.225     34.750  34.781368     4.6364      8.425   152.1597 2.4621e+02     2.1346     -0.117     -0.170    25.0482 0.0000e+00
     -0.112      0.020     8.4528    102.361     34.699  34.723742     4.6286      8.430   151.8708 2.4670e+02     2.1414     -0.113     -0.165    25.0486 0.0000e+00
     -0.100      0.021     8.3436    101.024     34.709  34.727123     4.6081      8.435   151.9210 2.4611e+02     2.1698     -0.099     -0.144    25.0482 0.0000e+00
     -0.086      0.021     8.2064     99.364     34.740  34.758716     4.5819      8.438   152.2502 2.4565e+02     2.1730     -0.081     -0.117    25.0458 0.0000e+00
     -0.081      0.021     8.0464     97.440     34.764  34.788139     4.5694      8.440   152.6682 2.4665e+02     2.1190     -0.076     -0.110    25.0416 0.0000e+00
     -0.083      0.019     7.8713     95.334     34.799  34.828806     4.5752      8.442   153.1030 2.4781e+02     2.0961     -0.082     -0.120    25.0284 0.0000e+00
     -0.084      0.014     7.7038     93.314     34.837  34.869310     4.5972      8.444   153.4636 2.4757e+02     2.1411     -0.085     -0.124    25.0156 0.0000e+00
     -0.079      0.008     7.5677     91.670     34.862  34.896764     4.6342      8.447   153.8445 2.4657e+02     2.2048     -0.079     -0.115    25.0188 0.0000e+00
     -0.070      0.001     7.4746     90.543     34.871  34.906667     4.6551      8.450   154.3533 2.4670e+02     2.2554     -0.069     -0.100    25.0298 0.0000e+00
     -0.064     -0.007     7.4262     89.954     34.828  34.862008     4.6561      8.451   154.8828 2.4905e+02     2.2957     -0.059     -0.087    25.0379 0.0000e+00
     -0.067     -0.017     7.4235     89.915     34.707  34.737913     4.6827      8.452   155.4282 2.5282e+02     2.2961     -0.063     -0.090    25.0411 0.0000e+00
     -0.079     -0.028     7.4603     90.355     34.585  34.613100     4.7374      8.454   155.9576 2.5662e+02     2.2289     -0.077     -0.112    25.0447 0.0000e+00
     -0.093     -0.039     7.5180     91.053     34.595  34.623280     4.7671      8.455   156.2931 2.5998e+02     2.1852     -0.092     -0.134    25.0466 0.0000e+00
     -0.104     -0.044     7.5769     91.767     34.705  34.733956     4.7658      8.457   156.4733 2.6366e+02     2.1642     -0.103     -0.149    25.0440 0.0000e+00
     -0.115     -0.043     7.6224     92.316     34.780  34.807943     4.7305      8.459   156.7602 2.6696e+02     2.1285     -0.111     -0.162    25.0396 0.0000e+00
     -0.127     -0.035     7.6474     92.611     34.794  34.819144     4.6711      8.460   158.6433 2.6829e+02     2.1503     -0.124     -0.180    25.0337 0.0000e+00
     -0.140     -0.021     7.6465     92.589     34.722  34.742347     4.6547      8.460   161.1733 2.6903e+02     2.1836     -0.140     -0.201    25.0344 0.0000e+00
     -0.149     -0.002     7.6172     92.217     34.565  34.578089     4.6693      8.460   160.9367 2.7057e+02     2.1641     -0.148     -0.215    25.0372 0.0000e+00
     -0.150      0.017     7.5638     91.559     34.476  34.484576     4.6827      8.460   159.3965 2.7162e+02     2.1593     -0.151     -0.221    25.0348 0.0000e+00
     -0.140      0.033     7.4943     90.717     34.556  34.564461     4.6971      8.461   158.8981 2.7134e+02     2.2165     -0.143     -0.207    25.0301 0.0000e+00
     -0.119      0.047     7.4203     89.817     34.712  34.718239     4.7052      8.461   158.8679 2.7056e+02     2.2770     -0.116     -0.168    25.0264 0.0000e+00
     -0.099      0.056     7.3538     89.005     34.816  34.819449     4.7162      8.461   158.9457 2.6977e+02     2.2802     -0.094     -0.136    25.0122 0.0000e+00
     -0.085      0.061     7.3017     88.378     34.830  34.835392     4.7197      8.458   159.2359 2.6970e+02     2.2548     -0.084     -0.121    25.0023 0.0000e+00
     -0.074      0.057     7.2643     87.935     34.775  34.783964     4.7120      8.454   159.7103 2.6943e+02     2.2438     -0.074     -0.107    25.0089 0.0000e+00
     -0.059      0.046     7.2364     87.609     34.755  34.769323     4.7055      8.452   160.1218 2.6063e+02     2.2693     -0.059     -0.086    25.0041 0.0000e+00
     -0.042      0.030     7.2118     87.326     34.828  34.848928     4.7050      8.452   160.5968 2.3237e+02     2.2883     -0.042     -0.060    24.9958 0.0000e+00
     -0.027      0.013     7.1904     87.085     34.892  34.920723     4.7145      8.450   161.1527 2.0250e+02     2.2603     -0.022     -0.031    24.9998 0.0000e+00
     -0.025     -0.003     7.1834     87.018     34.902  34.938693     4.7286      8.448   161.5079 1.9670e+02     2.2062     -0.017     -0.025    25.0076 0.0000e+00
     -0.039     -0.016     7.2000     87.238     34.895  34.939180     4.7471      8.448   161.7088 2.0053e+02     2.1531     -0.037     -0.055    25.0130 0.0000e+00
