* Sea-Bird SBE19plus  Data File:
* FileName = C:\DATA\080618_fcr50_0001.hex
* Software version 2.6.3.104 SB_Terminal.dll
* Temperature SN = 7809
* Conductivity SN = 7809
* System UpLoad Time = Aug 06 2018 16:27:35
* <ApplicationData>
* <Seaterm232>
* <SoftwareVersion>2.6.3.104</SoftwareVersion>
* <BuildDate>30-Jun-2017</BuildDate>
* </Seaterm232>
* </ApplicationData>
* cast   1 06 Aug 2018 13:37:13 samples 1 to 1249, avg = 1, stop = mag switch
# nquan = 15
# nvalues = 1109                        
# units = specified
# name 0 = depFM: Depth [fresh water, m]
# name 1 = dz/dtM: Descent Rate [m/s]
# name 2 = sbeox0Mg/L: Oxygen, SBE 43 [mg/l]
# name 3 = sbeox0PS: Oxygen, SBE 43 [% saturation]
# name 4 = specc: Specific Conductance [uS/cm]
# name 5 = c0uS/cm: Conductivity [uS/cm]
# name 6 = flECO-AFL: Fluorescence, WET Labs ECO-AFL/FL [mg/m^3]
# name 7 = ph: pH
# name 8 = orp: Oxidation Reduction Potential [mV]
# name 9 = par/sat/log: PAR/Logarithmic, Satlantic
# name 10 = turbWETntu0: Turbidity, WET Labs ECO [NTU]
# name 11 = prdM: Pressure, Strain Gauge [db]
# name 12 = prdE: Pressure, Strain Gauge [psi]
# name 13 = tv290C: Temperature [ITS-90, deg C]
# name 14 = flag:  0.000e+00
# span 0 =     -0.513,      9.304       
# span 1 =     -0.111,      3.687       
# span 2 =     0.0550,     8.2502       
# span 3 =      0.506,    101.927       
# span 4 =      3.734,    113.117       
# span 5 =   3.763887,  82.860949       
# span 6 =    -0.4271,     2.8831       
# span 7 =     -2.482,      7.626       
# span 8 =   188.4831,  1240.2295       
# span 9 = 1.2542e-01, 1.2603e+03       
# span 10 =    -0.4583,    46.1943      
# span 11 =     -0.504,      9.124      
# span 12 =     -0.731,     13.234      
# span 13 =    11.5983,    26.2976      
# span 14 = 0.0000e+00, 0.0000e+00      
# interval = seconds: 0.25
# start_time = Aug 06 2018 13:37:13 [Instrument's time stamp, header]
# bad_flag = -9.990e-29
# <Sensors count="9" >
#   <sensor Channel="1" >
#     <!-- Count, Temperature -->
#     <TemperatureSensor SensorID="58" >
#       <SerialNumber>7809</SerialNumber>
#       <CalibrationDate>09-Mar-18</CalibrationDate>
#       <A0>1.21093245e-003</A0>
#       <A1>2.84356597e-004</A1>
#       <A2>-1.94507398e-006</A2>
#       <A3>2.12806664e-007</A3>
#       <Slope>1.00000000</Slope>
#       <Offset>0.0000</Offset>
#     </TemperatureSensor>
#   </sensor>
#   <sensor Channel="2" >
#     <!-- Frequency 0, Conductivity -->
#     <ConductivitySensor SensorID="3" >
#       <SerialNumber>7809</SerialNumber>
#       <CalibrationDate>09-Mar-18</CalibrationDate>
#       <UseG_J>1</UseG_J>
#       <!-- Cell const and series R are applicable only for wide range sensors. -->
#       <SeriesR>0.0000</SeriesR>
#       <CellConst>2000.0000</CellConst>
#       <ConductivityType>0</ConductivityType>
#       <Coefficients equation="0" >
#         <A>0.00000000e+000</A>
#         <B>0.00000000e+000</B>
#         <C>0.00000000e+000</C>
#         <D>0.00000000e+000</D>
#         <M>0.0</M>
#         <CPcor>-9.57000000e-008</CPcor>
#       </Coefficients>
#       <Coefficients equation="1" >
#         <G>-1.00672082e+000</G>
#         <H>1.26906489e-001</H>
#         <I>-1.40584351e-004</I>
#         <J>2.47837121e-005</J>
#         <CPcor>-9.57000000e-008</CPcor>
#         <CTcor>3.2500e-006</CTcor>
#         <!-- WBOTC not applicable unless ConductivityType = 1. -->
#         <WBOTC>0.00000000e+000</WBOTC>
#       </Coefficients>
#       <Slope>1.00000000</Slope>
#       <Offset>0.00000</Offset>
#     </ConductivitySensor>
#   </sensor>
#   <sensor Channel="3" >
#     <!-- Count, Pressure, Strain Gauge -->
#     <PressureSensor SensorID="46" >
#       <SerialNumber>7809</SerialNumber>
#       <CalibrationDate>07-Mar-18</CalibrationDate>
#       <PA0>-4.08176359e-002</PA0>
#       <PA1>4.85188419e-004</PA1>
#       <PA2>-3.51168169e-012</PA2>
#       <PTEMPA0>-5.37806900e+001</PTEMPA0>
#       <PTEMPA1>5.36620721e+001</PTEMPA1>
#       <PTEMPA2>4.87214332e-002</PTEMPA2>
#       <PTCA0>5.25213435e+005</PTCA0>
#       <PTCA1>1.79532409e+000</PTCA1>
#       <PTCA2>-2.84353509e-001</PTCA2>
#       <PTCB0>2.51668750e+001</PTCB0>
#       <PTCB1>3.75000000e-004</PTCB1>
#       <PTCB2>0.00000000e+000</PTCB2>
#       <Offset>0.000000</Offset>
#     </PressureSensor>
#   </sensor>
#   <sensor Channel="4" >
#     <!-- A/D voltage 0, pH -->
#     <pH_Sensor SensorID="43" >
#       <SerialNumber>0363</SerialNumber>
#       <CalibrationDate>16-Mar-18</CalibrationDate>
#       <Slope>4.6194</Slope>
#       <Offset>2.5947</Offset>
#     </pH_Sensor>
#   </sensor>
#   <sensor Channel="5" >
#     <!-- A/D voltage 1, Oxidation Reduction Potential -->
#     <OxidationReductionPotentialSensor SensorID="41" >
#       <SerialNumber>0363</SerialNumber>
#       <CalibrationDate>16-Mar-18</CalibrationDate>
#       <B>2.499480</B>
#       <M>-0.496195</M>
#       <Offset>0.0</Offset>
#     </OxidationReductionPotentialSensor>
#   </sensor>
#   <sensor Channel="6" >
#     <!-- A/D voltage 2, Oxygen, SBE 43 -->
#     <OxygenSensor SensorID="38" >
#       <SerialNumber>0434</SerialNumber>
#       <CalibrationDate>13-Mar-18</CalibrationDate>
#       <Use2007Equation>1</Use2007Equation>
#       <CalibrationCoefficients equation="0" >
#         <!-- Coefficients for Owens-Millard equation. -->
#         <Boc>0.0000</Boc>
#         <Soc>0.0000e+000</Soc>
#         <offset>0.0000</offset>
#         <Pcor>0.00e+000</Pcor>
#         <Tcor>0.0000</Tcor>
#         <Tau>0.0</Tau>
#       </CalibrationCoefficients>
#       <CalibrationCoefficients equation="1" >
#         <!-- Coefficients for Sea-Bird equation - SBE calibration in 2007 and later. -->
#         <Soc>4.5718e-001</Soc>
#         <offset>-0.6113</offset>
#         <A>-4.0649e-003</A>
#         <B> 2.0945e-004</B>
#         <C>-3.3182e-006</C>
#         <D0> 2.5826e+000</D0>
#         <D1> 1.92634e-004</D1>
#         <D2>-4.64803e-002</D2>
#         <E> 3.6000e-002</E>
#         <Tau20> 1.2200</Tau20>
#         <H1>-3.3000e-002</H1>
#         <H2> 5.0000e+003</H2>
#         <H3> 1.4500e+003</H3>
#       </CalibrationCoefficients>
#     </OxygenSensor>
#   </sensor>
#   <sensor Channel="7" >
#     <!-- A/D voltage 3, PAR/Logarithmic, Satlantic -->
#     <PARLog_SatlanticSensor SensorID="76" >
#       <SerialNumber>1122</SerialNumber>
#       <CalibrationDate>22-Jun-2017</CalibrationDate>
#       <a0>9.6090e-001</a0>
#       <a1>8.0780e-001</a1>
#       <Im>1.3589e+000</Im>
#       <Multiplier>1.0000e+000</Multiplier>
#     </PARLog_SatlanticSensor>
#   </sensor>
#   <sensor Channel="8" >
#     <!-- A/D voltage 4, Fluorometer, WET Labs ECO-AFL/FL -->
#     <FluoroWetlabECO_AFL_FL_Sensor SensorID="20" >
#       <SerialNumber>FLNTURT-2496</SerialNumber>
#       <CalibrationDate>25-Jan-2017</CalibrationDate>
#       <ScaleFactor>5.30000000e+001</ScaleFactor>
#       <!-- Dark output -->
#       <Vblank>0.0560</Vblank>
#     </FluoroWetlabECO_AFL_FL_Sensor>
#   </sensor>
#   <sensor Channel="9" >
#     <!-- A/D voltage 5, Turbidity Meter, WET Labs, ECO-NTU -->
#     <TurbidityMeter SensorID="67" >
#       <SerialNumber>FLNTURT-2496</SerialNumber>
#       <CalibrationDate>25-Jan-2017</CalibrationDate>
#       <ScaleFactor>176.000000</ScaleFactor>
#       <!-- Dark output -->
#       <DarkVoltage>0.072000</DarkVoltage>
#     </TurbidityMeter>
#   </sensor>
# </Sensors>
# datcnv_date = Aug 06 2018 16:30:32, 7.26.7.114 [datcnv_vars = 14]
# datcnv_in = C:\DATA\080618_fcr50.hex C:\DATA\SBE19plusV2_7809.xmlcon
# datcnv_skipover = 0
# datcnv_ox_hysteresis_correction = yes
# datcnv_ox_tau_correction = yes
# filter_date = Aug 06 2018 16:30:50, 7.26.7.114
# filter_in = C:\DATA\080618_fcr50.cnv
# filter_low_pass_tc_A = 0.030
# filter_low_pass_tc_B = 0.150
# filter_low_pass_A_vars = prdM prdE tv290C
# filter_low_pass_B_vars = depFM dz/dtM sbeox0Mg/L sbeox0PS specc c0uS/cm flECO-AFL ph orp par/sat/log turbWETntu0
# alignctd_date = Aug 06 2018 16:31:06, 7.26.7.114
# alignctd_in = C:\DATA\080618_fcr50.cnv
# alignctd_adv = dz/dtM 1.000, sbeox0Mg/L 1.000, sbeox0PS 1.000, specc 1.000, c0uS/cm 1.000, flECO-AFL 1.000, ph 1.000, orp 1.000, turbWETntu0 1.000                                                                                 
# file_type = ascii
*END*
     -0.512 1.0843e-38     8.2428    100.480      4.730   4.767899    -0.1661      5.642  1239.9330 3.7102e+02     0.0190     -0.502     -0.729    25.3915 0.0000e+00
     -0.512 1.1927e-37     8.2438    100.491      4.777   4.814794    -0.1685      5.835  1240.2026 3.6891e+02    -0.0132     -0.502     -0.729    25.3917 0.0000e+00
     -0.512 1.3120e-36     8.2438    100.490      4.645   4.681749    -0.1775      5.938  1240.2271 3.6487e+02    -0.0180     -0.502     -0.729    25.3914 0.0000e+00
     -0.512 1.4432e-35     8.2439    100.492      4.582   4.618019    -0.2010      6.007  1240.2293 3.5877e+02    -0.0094     -0.503     -0.729    25.3911 0.0000e+00
     -0.512 1.5875e-34     8.2440    100.493      4.768   4.805325    -0.2230      6.064  1240.2295 3.4923e+02    -0.0009     -0.502     -0.728    25.3912 0.0000e+00
     -0.512 1.7462e-33     8.2450    100.505      4.627   4.663184    -0.2323      6.100  1240.2295 3.3454e+02     0.0246     -0.502     -0.729    25.3908 0.0000e+00
     -0.512 1.9209e-32     8.2464    100.522      4.261   4.294691    -0.2298      6.102  1240.2295 3.2253e+02     0.0239     -0.503     -0.729    25.3907 0.0000e+00
     -0.512 2.1130e-31     8.2462    100.519      4.249   4.282159    -0.2115      6.086  1240.2295 3.2670e+02    -0.0396     -0.502     -0.728    25.3906 0.0000e+00
     -0.512 2.3242e-30     8.2444    100.498      4.351   4.384855    -0.1860      6.072  1240.2295 3.3646e+02    -0.1335     -0.503     -0.729    25.3905 0.0000e+00
     -0.512 2.5567e-29     8.2439    100.492      4.297   4.331367    -0.1792      6.068  1240.2295 3.2802e+02    -0.2258     -0.502     -0.729    25.3906 0.0000e+00
     -0.512 2.8123e-28     8.2448    100.502      4.236   4.269661    -0.1839      6.067  1240.2295 3.0904e+02    -0.2399     -0.503     -0.729    25.3904 0.0000e+00
     -0.512 3.0936e-27     8.2445    100.498      4.239   4.272997    -0.1785      6.063  1240.2295 2.9714e+02    -0.0901     -0.502     -0.728    25.3906 0.0000e+00
     -0.512 3.4029e-26     8.2440    100.493      4.211   4.244862    -0.1692      6.061  1240.2295 2.9122e+02     0.1196     -0.503     -0.729    25.3905 0.0000e+00
     -0.512 3.7432e-25     8.2460    100.517      4.150   4.183182    -0.1722      6.061  1240.2295 2.8567e+02     0.2202     -0.502     -0.728    25.3906 0.0000e+00
     -0.512 4.1175e-24     8.2480    100.541      4.129   4.161444    -0.1785      6.066  1240.2295 2.7702e+02     0.2115     -0.502     -0.728    25.3905 0.0000e+00
     -0.512 4.5293e-23     8.2475    100.535      4.202   4.235717    -0.1806      6.073  1240.2295 2.7236e+02     0.0751     -0.503     -0.729    25.3904 0.0000e+00
     -0.512 4.9822e-22     8.2460    100.516      4.286   4.320143    -0.1799      6.075  1240.2295 2.7569e+02    -0.1165     -0.503     -0.729    25.3906 0.0000e+00
     -0.512 5.4804e-21     8.2446    100.500      4.386   4.421163    -0.1704      6.068  1240.2295 2.7781e+02    -0.1829     -0.502     -0.728    25.3904 0.0000e+00
     -0.512 6.0285e-20     8.2440    100.492      4.470   4.505794    -0.1665      6.070  1240.2295 2.7389e+02    -0.1787     -0.502     -0.729    25.3904 0.0000e+00
     -0.513 6.6313e-19     8.2441    100.493      4.358   4.392062    -0.1694      6.081  1240.2295 2.6977e+02    -0.1872     -0.503     -0.730    25.3905 0.0000e+00
     -0.513 7.2945e-18     8.2444    100.497      4.218   4.251075    -0.1690      6.094  1240.2295 2.7027e+02    -0.2251     -0.504     -0.730    25.3904 0.0000e+00
     -0.513 8.0239e-17     8.2445    100.498      4.163   4.196450    -0.1706      6.100  1240.2295 2.7337e+02    -0.2710     -0.503     -0.729    25.3905 0.0000e+00
     -0.513 8.8263e-16     8.2450    100.503      4.143   4.175545    -0.1705      6.098  1240.2295 2.7801e+02    -0.2532     -0.503     -0.729    25.3903 0.0000e+00
     -0.513 9.7089e-15     8.2458    100.514      4.219   4.252008    -0.1677      6.100  1240.2295 2.8287e+02    -0.2241     -0.503     -0.729    25.3901 0.0000e+00
     -0.513 1.0680e-13     8.2451    100.505      4.263   4.296467    -0.1729      6.105  1240.2295 2.9007e+02    -0.2545     -0.503     -0.729    25.3899 0.0000e+00
     -0.513 1.1748e-12     8.2437    100.488      4.236   4.269137    -0.1784      6.106  1240.2295 3.0823e+02    -0.2848     -0.502     -0.728    25.3898 0.0000e+00
     -0.513 1.2923e-11     8.2437    100.487      4.143   4.175248    -0.1708      6.092  1240.2295 3.3263e+02    -0.2546     -0.503     -0.729    25.3900 0.0000e+00
     -0.513 1.4215e-10     8.2439    100.490      3.955   3.985740    -0.1630      6.075  1240.2295 3.5040e+02    -0.2246     -0.502     -0.729    25.3899 0.0000e+00
     -0.513 1.5636e-09     8.2441    100.493      3.976   4.007317    -0.1679      6.086  1240.2295 3.6428e+02    -0.2274     -0.503     -0.729    25.3898 0.0000e+00
     -0.513 1.7200e-08     8.2449    100.503      4.150   4.182467    -0.1735      6.111  1240.2295 3.8069e+02    -0.2279     -0.502     -0.729    25.3899 0.0000e+00
     -0.513 1.8920e-07     8.2454    100.508      4.231   4.264219    -0.1754      6.109  1240.2295 3.9564e+02    -0.2300     -0.503     -0.729    25.3898 0.0000e+00
     -0.513      0.000     8.2454    100.508      4.265   4.298139    -0.1730      6.084  1240.2295 4.0012e+02    -0.2227     -0.503     -0.729    25.3897 0.0000e+00
     -0.513      0.000     8.2458    100.513      4.243   4.275464    -0.1632      6.075  1240.2295 3.9211e+02    -0.2012     -0.503     -0.729    25.3897 0.0000e+00
     -0.513      0.000     8.2459    100.514      4.148   4.180327    -0.1572      6.066  1240.2295 3.7841e+02    -0.1842     -0.503     -0.729    25.3897 0.0000e+00
     -0.513      0.003     8.2460    100.515      4.067   4.099191    -0.1560      6.042  1240.2295 3.6626e+02    -0.1688     -0.503     -0.730    25.3896 0.0000e+00
     -0.513      0.030     8.2465    100.520      4.024   4.055525    -0.1582      6.035  1240.2295 3.5961e+02    -0.1676     -0.503     -0.730    25.3894 0.0000e+00
     -0.513      0.335     8.2465    100.519      4.001   4.032889    -0.1655      6.048  1240.2295 3.5441e+02    -0.1397     -0.502     -0.729    25.3895 0.0000e+00
     -0.513      3.687     8.2465    100.519      4.047   4.079193    -0.1615      6.053  1240.2295 3.4362e+02    -0.0452     -0.503     -0.730    25.3893 0.0000e+00
     -0.513 4.0557e-99     8.2461    100.515      3.949   3.981159    -0.1559      6.056  1240.2295 3.2150e+02     0.0301     -0.503     -0.729    25.3889 0.0000e+00
     -0.513 4.4612e-98     8.2450    100.501      3.769   3.798886    -0.1622      6.066  1240.2295 2.8640e+02     0.0380     -0.503     -0.729    25.3887 0.0000e+00
     -0.513 4.9074e-97     8.2444    100.494      3.811   3.841405    -0.1639      6.073  1240.2295 2.4816e+02     0.0185     -0.503     -0.729    25.3886 0.0000e+00
     -0.513 5.3981e-96     8.2442    100.491      3.894   3.924470    -0.1580      6.078  1240.2295 2.2102e+02     0.0083     -0.503     -0.729    25.3885 0.0000e+00
     -0.513 5.9379e-95     8.2432    100.477      3.822   3.851905    -0.1555      6.086  1240.2295 2.1332e+02     0.0067     -0.503     -0.730    25.3884 0.0000e+00
     -0.513 6.5317e-94     8.2424    100.467      3.759   3.788501    -0.1611      6.096  1240.2295 2.3028e+02    -0.0003     -0.503     -0.729    25.3883 0.0000e+00
     -0.513 7.1849e-93     8.2432    100.477      3.951   3.982335    -0.1606      6.101  1240.2295 2.5508e+02    -0.0149     -0.503     -0.730    25.3881 0.0000e+00
     -0.513 7.9034e-92     8.2448    100.497      4.133   4.166036    -0.1495      6.098  1240.2295 2.5582e+02    -0.0183     -0.503     -0.729    25.3879 0.0000e+00
     -0.513 8.6937e-91     8.2459    100.510      3.949   3.980116    -0.1461      6.087  1240.2295 2.3090e+02    -0.0098     -0.503     -0.730    25.3877 0.0000e+00
     -0.513 9.5631e-90     8.2459    100.510      3.734   3.763887    -0.1569      6.077  1240.2295 2.0036e+02    -0.0352     -0.503     -0.729    25.3878 0.0000e+00
     -0.513 1.0519e-88     8.2455    100.505      3.805   3.834820    -0.1704      6.078  1240.2295 1.8189e+02    -0.0507     -0.502     -0.729    25.3879 0.0000e+00
     -0.513 1.1571e-87     8.2467    100.519      3.982   4.013288    -0.1704      6.083  1240.2295 1.7685e+02    -0.0747     -0.503     -0.730    25.3877 0.0000e+00
     -0.513 1.2728e-86     8.2478    100.532      4.051   4.082502    -0.1669      6.085  1240.2295 1.7942e+02    -0.1729     -0.503     -0.730    25.3876 0.0000e+00
     -0.512 1.4001e-85     8.2474    100.527      4.006   4.037452    -0.1737      6.090  1240.2295 1.9538e+02    -0.2313     -0.502     -0.729    25.3874 0.0000e+00
     -0.512 1.5401e-84     8.2478    100.532      3.945   3.975979    -0.1697      6.095  1240.2295 2.1663e+02    -0.2013     -0.502     -0.729    25.3870 0.0000e+00
     -0.513 1.6942e-83     8.2484    100.539      4.005   4.036876    -0.1554      6.095  1240.2295 2.1908e+02    -0.1457     -0.503     -0.730    25.3870 0.0000e+00
     -0.513 1.8636e-82     8.2474    100.527      4.107   4.139513    -0.1577      6.094  1240.2295 2.0197e+02    -0.0780     -0.503     -0.730    25.3871 0.0000e+00
     -0.513 2.0499e-81     8.2460    100.510      4.044   4.075355    -0.1702      6.087  1240.2295 1.8351e+02    -0.0235     -0.503     -0.729    25.3868 0.0000e+00
     -0.513 2.2549e-80     8.2453    100.502      3.991   4.022221    -0.1767      6.072  1240.2295 1.7318e+02    -0.0051     -0.503     -0.730    25.3867 0.0000e+00
     -0.513 2.4804e-79     8.2448    100.495      3.911   3.941051    -0.1728      6.046  1240.2295 1.6958e+02    -0.0382     -0.503     -0.730    25.3867 0.0000e+00
     -0.513 2.7285e-78     8.2449    100.495      3.762   3.791551    -0.1688      6.022  1240.2295 1.7017e+02    -0.1192     -0.503     -0.729    25.3868 0.0000e+00
     -0.513 3.0013e-77     8.2455    100.503      3.771   3.800175    -0.1747      6.027  1240.2295 1.7121e+02    -0.1905     -0.503     -0.730    25.3865 0.0000e+00
     -0.513 3.3014e-76     8.2458    100.507      3.825   3.855063    -0.1795      6.063  1240.2295 1.7106e+02    -0.2300     -0.503     -0.730    25.3862 0.0000e+00
     -0.513 3.6316e-75     8.2466    100.516      3.854   3.884398    -0.1800      6.113  1240.2295 1.8008e+02    -0.2295     -0.503     -0.730    25.3862 0.0000e+00
     -0.513 3.9947e-74     8.2461    100.510      3.871   3.901187    -0.1720      6.137  1240.2295 2.0054e+02    -0.2150     -0.503     -0.730    25.3861 0.0000e+00
     -0.513 4.3942e-73     8.2444    100.489      3.901   3.931216    -0.1651      6.129  1240.2295 2.2831e+02    -0.2078     -0.503     -0.729    25.3862 0.0000e+00
     -0.513 4.8336e-72     8.2445    100.491      3.963   3.993790    -0.1711      6.122  1240.2295 3.8931e+02    -0.2023     -0.504     -0.731    25.3861 0.0000e+00
     -0.513 5.3170e-71     8.2451    100.499      3.992   4.023543    -0.1702      6.103  1240.2295 6.7102e+02    -0.2404     -0.503     -0.730    25.3861 0.0000e+00
     -0.513 5.8487e-70     8.2454    100.502      4.006   4.037276    -0.1636      6.084  1240.2295 8.1907e+02    -0.2729     -0.503     -0.729    25.3862 0.0000e+00
     -0.513 6.4335e-69     8.2464    100.513      4.002   4.032984    -0.1646      6.091  1240.2295 8.4000e+02    -0.2281     -0.503     -0.730    25.3861 0.0000e+00
