* Sea-Bird SBE19plus  Data File:
* FileName = C:\DATA\080618_fcr50_0003.hex
* Software version 2.6.3.104 SB_Terminal.dll
* Temperature SN = 7809
* Conductivity SN = 7809
* System UpLoad Time = Aug 06 2018 16:27:59
* <ApplicationData>
* <Seaterm232>
* <SoftwareVersion>2.6.3.104</SoftwareVersion>
* <BuildDate>30-Jun-2017</BuildDate>
* </Seaterm232>
* </ApplicationData>
* cast   3 06 Aug 2018 14:13:51 samples 1591 to 2006, avg = 1, stop = mag switch
# nquan = 15
# nvalues = 360                         
# units = specified
# name 0 = depFM: Depth [fresh water, m]
# name 1 = dz/dtM: Descent Rate [m/s]
# name 2 = sbeox0Mg/L: Oxygen, SBE 43 [mg/l]
# name 3 = sbeox0PS: Oxygen, SBE 43 [% saturation]
# name 4 = specc: Specific Conductance [uS/cm]
# name 5 = c0uS/cm: Conductivity [uS/cm]
# name 6 = flECO-AFL: Fluorescence, WET Labs ECO-AFL/FL [mg/m^3]
# name 7 = ph: pH
# name 8 = orp: Oxidation Reduction Potential [mV]
# name 9 = par/sat/log: PAR/Logarithmic, Satlantic
# name 10 = turbWETntu0: Turbidity, WET Labs ECO [NTU]
# name 11 = prdM: Pressure, Strain Gauge [db]
# name 12 = prdE: Pressure, Strain Gauge [psi]
# name 13 = tv290C: Temperature [ITS-90, deg C]
# name 14 = flag:  0.000e+00
# span 0 =     -0.513,      3.489       
# span 1 =     -0.081,      0.220       
# span 2 =    -0.1588,     8.9430       
# span 3 =     -1.788,    108.192       
# span 4 =      2.225,    114.434       
# span 5 =   2.225053,  95.521719       
# span 6 =    -0.3056,     5.2991       
# span 7 =      6.539,      8.131       
# span 8 =    84.3476,   282.8923       
# span 9 = 5.6377e+00, 3.5942e+02       
# span 10 =    -0.6729,     8.0044      
# span 11 =     -0.504,      3.423      
# span 12 =     -0.731,      4.964      
# span 13 =    16.3886,    25.9338      
# span 14 = 0.0000e+00, 0.0000e+00      
# interval = seconds: 0.25
# start_time = Aug 06 2018 14:13:51 [Instrument's time stamp, header]
# bad_flag = -9.990e-29
# <Sensors count="9" >
#   <sensor Channel="1" >
#     <!-- Count, Temperature -->
#     <TemperatureSensor SensorID="58" >
#       <SerialNumber>7809</SerialNumber>
#       <CalibrationDate>09-Mar-18</CalibrationDate>
#       <A0>1.21093245e-003</A0>
#       <A1>2.84356597e-004</A1>
#       <A2>-1.94507398e-006</A2>
#       <A3>2.12806664e-007</A3>
#       <Slope>1.00000000</Slope>
#       <Offset>0.0000</Offset>
#     </TemperatureSensor>
#   </sensor>
#   <sensor Channel="2" >
#     <!-- Frequency 0, Conductivity -->
#     <ConductivitySensor SensorID="3" >
#       <SerialNumber>7809</SerialNumber>
#       <CalibrationDate>09-Mar-18</CalibrationDate>
#       <UseG_J>1</UseG_J>
#       <!-- Cell const and series R are applicable only for wide range sensors. -->
#       <SeriesR>0.0000</SeriesR>
#       <CellConst>2000.0000</CellConst>
#       <ConductivityType>0</ConductivityType>
#       <Coefficients equation="0" >
#         <A>0.00000000e+000</A>
#         <B>0.00000000e+000</B>
#         <C>0.00000000e+000</C>
#         <D>0.00000000e+000</D>
#         <M>0.0</M>
#         <CPcor>-9.57000000e-008</CPcor>
#       </Coefficients>
#       <Coefficients equation="1" >
#         <G>-1.00672082e+000</G>
#         <H>1.26906489e-001</H>
#         <I>-1.40584351e-004</I>
#         <J>2.47837121e-005</J>
#         <CPcor>-9.57000000e-008</CPcor>
#         <CTcor>3.2500e-006</CTcor>
#         <!-- WBOTC not applicable unless ConductivityType = 1. -->
#         <WBOTC>0.00000000e+000</WBOTC>
#       </Coefficients>
#       <Slope>1.00000000</Slope>
#       <Offset>0.00000</Offset>
#     </ConductivitySensor>
#   </sensor>
#   <sensor Channel="3" >
#     <!-- Count, Pressure, Strain Gauge -->
#     <PressureSensor SensorID="46" >
#       <SerialNumber>7809</SerialNumber>
#       <CalibrationDate>07-Mar-18</CalibrationDate>
#       <PA0>-4.08176359e-002</PA0>
#       <PA1>4.85188419e-004</PA1>
#       <PA2>-3.51168169e-012</PA2>
#       <PTEMPA0>-5.37806900e+001</PTEMPA0>
#       <PTEMPA1>5.36620721e+001</PTEMPA1>
#       <PTEMPA2>4.87214332e-002</PTEMPA2>
#       <PTCA0>5.25213435e+005</PTCA0>
#       <PTCA1>1.79532409e+000</PTCA1>
#       <PTCA2>-2.84353509e-001</PTCA2>
#       <PTCB0>2.51668750e+001</PTCB0>
#       <PTCB1>3.75000000e-004</PTCB1>
#       <PTCB2>0.00000000e+000</PTCB2>
#       <Offset>0.000000</Offset>
#     </PressureSensor>
#   </sensor>
#   <sensor Channel="4" >
#     <!-- A/D voltage 0, pH -->
#     <pH_Sensor SensorID="43" >
#       <SerialNumber>0363</SerialNumber>
#       <CalibrationDate>16-Mar-18</CalibrationDate>
#       <Slope>4.6194</Slope>
#       <Offset>2.5947</Offset>
#     </pH_Sensor>
#   </sensor>
#   <sensor Channel="5" >
#     <!-- A/D voltage 1, Oxidation Reduction Potential -->
#     <OxidationReductionPotentialSensor SensorID="41" >
#       <SerialNumber>0363</SerialNumber>
#       <CalibrationDate>16-Mar-18</CalibrationDate>
#       <B>2.499480</B>
#       <M>-0.496195</M>
#       <Offset>0.0</Offset>
#     </OxidationReductionPotentialSensor>
#   </sensor>
#   <sensor Channel="6" >
#     <!-- A/D voltage 2, Oxygen, SBE 43 -->
#     <OxygenSensor SensorID="38" >
#       <SerialNumber>0434</SerialNumber>
#       <CalibrationDate>13-Mar-18</CalibrationDate>
#       <Use2007Equation>1</Use2007Equation>
#       <CalibrationCoefficients equation="0" >
#         <!-- Coefficients for Owens-Millard equation. -->
#         <Boc>0.0000</Boc>
#         <Soc>0.0000e+000</Soc>
#         <offset>0.0000</offset>
#         <Pcor>0.00e+000</Pcor>
#         <Tcor>0.0000</Tcor>
#         <Tau>0.0</Tau>
#       </CalibrationCoefficients>
#       <CalibrationCoefficients equation="1" >
#         <!-- Coefficients for Sea-Bird equation - SBE calibration in 2007 and later. -->
#         <Soc>4.5718e-001</Soc>
#         <offset>-0.6113</offset>
#         <A>-4.0649e-003</A>
#         <B> 2.0945e-004</B>
#         <C>-3.3182e-006</C>
#         <D0> 2.5826e+000</D0>
#         <D1> 1.92634e-004</D1>
#         <D2>-4.64803e-002</D2>
#         <E> 3.6000e-002</E>
#         <Tau20> 1.2200</Tau20>
#         <H1>-3.3000e-002</H1>
#         <H2> 5.0000e+003</H2>
#         <H3> 1.4500e+003</H3>
#       </CalibrationCoefficients>
#     </OxygenSensor>
#   </sensor>
#   <sensor Channel="7" >
#     <!-- A/D voltage 3, PAR/Logarithmic, Satlantic -->
#     <PARLog_SatlanticSensor SensorID="76" >
#       <SerialNumber>1122</SerialNumber>
#       <CalibrationDate>22-Jun-2017</CalibrationDate>
#       <a0>9.6090e-001</a0>
#       <a1>8.0780e-001</a1>
#       <Im>1.3589e+000</Im>
#       <Multiplier>1.0000e+000</Multiplier>
#     </PARLog_SatlanticSensor>
#   </sensor>
#   <sensor Channel="8" >
#     <!-- A/D voltage 4, Fluorometer, WET Labs ECO-AFL/FL -->
#     <FluoroWetlabECO_AFL_FL_Sensor SensorID="20" >
#       <SerialNumber>FLNTURT-2496</SerialNumber>
#       <CalibrationDate>25-Jan-2017</CalibrationDate>
#       <ScaleFactor>5.30000000e+001</ScaleFactor>
#       <!-- Dark output -->
#       <Vblank>0.0560</Vblank>
#     </FluoroWetlabECO_AFL_FL_Sensor>
#   </sensor>
#   <sensor Channel="9" >
#     <!-- A/D voltage 5, Turbidity Meter, WET Labs, ECO-NTU -->
#     <TurbidityMeter SensorID="67" >
#       <SerialNumber>FLNTURT-2496</SerialNumber>
#       <CalibrationDate>25-Jan-2017</CalibrationDate>
#       <ScaleFactor>176.000000</ScaleFactor>
#       <!-- Dark output -->
#       <DarkVoltage>0.072000</DarkVoltage>
#     </TurbidityMeter>
#   </sensor>
# </Sensors>
# datcnv_date = Aug 06 2018 16:30:31, 7.26.7.114 [datcnv_vars = 14]
# datcnv_in = C:\DATA\080618_fcr20.hex C:\DATA\SBE19plusV2_7809.xmlcon
# datcnv_skipover = 0
# datcnv_ox_hysteresis_correction = yes
# datcnv_ox_tau_correction = yes
# filter_date = Aug 06 2018 16:30:50, 7.26.7.114
# filter_in = C:\DATA\080618_fcr20.cnv
# filter_low_pass_tc_A = 0.030
# filter_low_pass_tc_B = 0.150
# filter_low_pass_A_vars = prdM prdE tv290C
# filter_low_pass_B_vars = depFM dz/dtM sbeox0Mg/L sbeox0PS specc c0uS/cm flECO-AFL ph orp par/sat/log turbWETntu0
# alignctd_date = Aug 06 2018 16:31:06, 7.26.7.114
# alignctd_in = C:\DATA\080618_fcr20.cnv
# alignctd_adv = dz/dtM 1.000, sbeox0Mg/L 1.000, sbeox0PS 1.000, specc 1.000, c0uS/cm 1.000, flECO-AFL 1.000, ph 1.000, orp 1.000, turbWETntu0 1.000                                                                                 
# file_type = ascii
*END*
     -0.512 1.9368e-17     8.2192     99.438      2.560   2.559156    -0.1629      6.658   278.8517 9.6521e+01    -0.6134     -0.502     -0.728    24.9889 0.0000e+00
     -0.512 2.1305e-16     8.2197     99.442      2.519   2.518470    -0.1607      6.618   277.9610 1.0162e+02    -0.6478     -0.502     -0.728    24.9859 0.0000e+00
     -0.512 2.3435e-15     8.2210     99.457      2.478   2.477868    -0.1669      6.601   277.8143 1.0083e+02    -0.6563     -0.502     -0.728    24.9839 0.0000e+00
     -0.512 2.5779e-14     8.2219     99.467      2.449   2.448743    -0.1735      6.611   279.3145 9.8762e+01    -0.6552     -0.502     -0.728    24.9818 0.0000e+00
     -0.512 2.8356e-13     8.2219     99.466      2.421   2.419992    -0.1765      6.625   281.9903 9.8831e+01    -0.6648     -0.502     -0.729    24.9797 0.0000e+00
     -0.512 3.1192e-12     8.2204     99.449      2.385   2.383904    -0.1767      6.619   282.8923 9.8352e+01    -0.6505     -0.502     -0.728    24.9791 0.0000e+00
     -0.512 3.4311e-11     8.2190     99.432      2.330   2.329499    -0.1660      6.600   276.7979 9.8063e+01    -0.6350     -0.502     -0.729    24.9787 0.0000e+00
     -0.512 3.7742e-10     8.2192     99.436      2.270   2.269516    -0.1576      6.594   268.3585 9.8500e+01    -0.6595     -0.502     -0.728    24.9788 0.0000e+00
     -0.512 4.1517e-09     8.2194     99.438      2.230   2.229408    -0.1576      6.626   267.1501 9.9782e+01    -0.6723     -0.502     -0.728    24.9787 0.0000e+00
     -0.513 4.5668e-08     8.2184     99.427      2.225   2.225053    -0.1569      6.681   270.0172 9.8889e+01    -0.6684     -0.503     -0.729    24.9788 0.0000e+00
     -0.513 5.0235e-07     8.2180     99.420      2.344   2.343688    -0.1587      6.707   265.8547 9.3005e+01    -0.6729     -0.503     -0.729    24.9787 0.0000e+00
     -0.513      0.000     8.2189     99.425      2.587   2.585727    -0.1979      6.684   252.7861 8.8180e+01    -0.6663     -0.502     -0.729    24.9790 0.0000e+00
     -0.513      0.000     8.2207     99.438      2.743   2.741677    -0.2716      6.656   247.4312 9.1806e+01    -0.6496     -0.503     -0.729    24.9789 0.0000e+00
     -0.513      0.001     8.2239     99.468      3.026   3.024332    -0.3056      6.673   256.6045 1.0316e+02    -0.5935     -0.503     -0.729    24.9794 0.0000e+00
     -0.513      0.007     8.2271     99.510      6.257   6.256950    -0.2876      6.779   268.7987 1.1498e+02    -0.3843     -0.503     -0.730    24.9788 0.0000e+00
     -0.513      0.031     8.2227     99.544     16.617  16.643182    -0.1180      7.088   258.6701 1.2205e+02     1.7279     -0.503     -0.731    24.9775 0.0000e+00
     -0.513      0.075     8.2036     99.579     29.167  29.287575     0.2006      7.557   223.6212 1.2810e+02     5.6565     -0.502     -0.729    24.9697 0.0000e+00
     -0.510      0.129     8.1751     99.629     34.836  35.106097     0.3945      7.922   202.6056 1.3880e+02     7.8086     -0.504     -0.731    24.9657 0.0000e+00
     -0.486      0.179     8.1524     99.720     35.347  35.759663     0.4345      8.086   201.2579 1.5382e+02     8.0044     -0.497     -0.721    24.9577 0.0000e+00
     -0.416      0.210     8.1451     99.898     35.341  35.856057     0.4914      8.131   201.7331 1.7179e+02     7.9321     -0.423     -0.614    24.9686 0.0000e+00
     -0.313      0.220     8.1510    100.144     35.309  35.890606     1.1648      8.121   202.4153 1.8851e+02     6.6596     -0.300     -0.435    25.1271 0.0000e+00
     -0.222      0.207     8.1641    100.408     35.239  35.859885     2.4276      8.093   202.8803 1.9669e+02     4.3373     -0.202     -0.293    25.3877 0.0000e+00
     -0.170      0.175     8.1793    100.654     35.160  35.802279     3.1240      8.064   203.0536 1.9768e+02     3.0782     -0.154     -0.224    25.5977 0.0000e+00
     -0.151      0.131     8.1933    100.856     35.113  35.765822     3.1882      8.034   203.3930 1.9816e+02     2.9413     -0.144     -0.209    25.7411 0.0000e+00
     -0.145      0.089     8.2065    101.033     35.079  35.736716     3.2319      8.002   203.8864 1.9936e+02     2.9571     -0.145     -0.210    25.8308 0.0000e+00
     -0.138      0.061     8.2214    101.213     35.049  35.704460     3.3129      7.973   204.2002 1.9935e+02     3.0548     -0.138     -0.200    25.8823 0.0000e+00
     -0.124      0.045     8.2357    101.370     35.045  35.693421     3.3583      7.955   204.4345 1.9747e+02     3.1156     -0.126     -0.182    25.9115 0.0000e+00
     -0.104      0.032     8.2452    101.462     35.090  35.730274     3.3670      7.946   204.8259 1.9512e+02     3.1122     -0.103     -0.150    25.9252 0.0000e+00
     -0.085      0.018     8.2479    101.479     35.135  35.768902     3.3447      7.944   205.3184 1.9756e+02     3.1358     -0.078     -0.114    25.9338 0.0000e+00
     -0.080      0.004     8.2434    101.419     35.147  35.779328     3.2808      7.944   205.7443 2.1130e+02     3.1570     -0.072     -0.105    25.9330 0.0000e+00
     -0.091     -0.008     8.2327    101.294     35.157  35.792810     3.2379      7.945   206.1035 2.3486e+02     3.1248     -0.086     -0.124    25.9191 0.0000e+00
     -0.109     -0.015     8.2194    101.143     35.164  35.804880     3.2401      7.946   206.3051 2.5652e+02     3.0818     -0.110     -0.159    25.9035 0.0000e+00
     -0.122     -0.016     8.2079    101.011     35.154  35.798222     3.2516      7.947   206.2896 2.6727e+02     3.0038     -0.124     -0.181    25.8936 0.0000e+00
     -0.122     -0.008     8.1997    100.915     35.131  35.775831     3.2591      7.948   206.4331 2.6895e+02     2.9141     -0.122     -0.177    25.8914 0.0000e+00
     -0.116      0.005     8.1953    100.862     35.080  35.724730     3.2561      7.949   206.7491 2.6710e+02     2.9131     -0.114     -0.166    25.8966 0.0000e+00
     -0.111      0.017     8.1937    100.844     35.044  35.688532     3.2435      7.951   206.6676 2.6365e+02     2.9311     -0.109     -0.157    25.9048 0.0000e+00
     -0.105      0.024     8.1949    100.862     35.073  35.719299     3.2622      7.953   206.2229 2.5675e+02     2.9171     -0.104     -0.150    25.9110 0.0000e+00
     -0.098      0.026     8.1988    100.913     35.130  35.779120     3.2997      7.953   206.1034 2.4636e+02     2.9276     -0.098     -0.141    25.9122 0.0000e+00
     -0.090      0.027     8.2035    100.973     35.190  35.840136     3.3109      7.953   206.4275 2.3739e+02     2.9360     -0.087     -0.127    25.9119 0.0000e+00
     -0.083      0.029     8.2097    101.052     35.233  35.885334     3.3144      7.952   206.7861 2.3454e+02     2.9268     -0.080     -0.116    25.9133 0.0000e+00
     -0.078      0.030     8.2061    101.011     35.228  35.880953     3.3418      7.950   206.9991 2.3750e+02     2.9684     -0.077     -0.111    25.9157 0.0000e+00
     -0.071      0.031     8.1675    100.536     35.198  35.850681     3.3928      7.950   207.1096 2.4272e+02     3.0725     -0.071     -0.102    25.9175 0.0000e+00
     -0.061      0.033     8.0895     99.575     35.185  35.836938     3.4362      7.953   207.3481 2.4725e+02     3.1174     -0.059     -0.085    25.9183 0.0000e+00
     -0.051      0.036     7.9919     98.372     35.190  35.841832     3.4525      7.957   207.8171 2.4885e+02     3.1154     -0.049     -0.071    25.9188 0.0000e+00
     -0.043      0.036     7.8888     97.098     35.196  35.846332     3.4434      7.958   208.1341 2.4670e+02     3.1394     -0.043     -0.062    25.9208 0.0000e+00
     -0.033      0.032     7.7866     95.838     35.179  35.827823     3.4270      7.958   208.0841 2.4292e+02     3.1026     -0.033     -0.048    25.9216 0.0000e+00
     -0.021      0.024     7.6901     94.648     35.161  35.808605     3.4280      7.959   208.0721 2.3944e+02     3.0064     -0.020     -0.031    25.9207 0.0000e+00
     -0.011      0.014     7.6025     93.568     35.158  35.804526     3.4376      7.961   208.2469 2.3812e+02     2.9523     -0.009     -0.012    25.9198 0.0000e+00
     -0.008      0.006     7.5375     92.768     35.133  35.778503     3.4421      7.964   208.4772 2.4038e+02     2.9363     -0.004     -0.005    25.9178 0.0000e+00
     -0.013      0.001     7.5130     92.465     35.103  35.748048     3.4552      7.967   208.7067 2.4270e+02     2.9662     -0.012     -0.016    25.9159 0.0000e+00
     -0.022      0.001     7.5262     92.628     35.109  35.753917     3.4853      7.969   208.7841 2.4119e+02     3.0692     -0.024     -0.035    25.9146 0.0000e+00
     -0.027      0.010     7.5531     92.961     35.139  35.785932     3.5126      7.970   208.8106 2.3697e+02     3.1441     -0.030     -0.044    25.9136 0.0000e+00
     -0.024      0.026     7.5728     93.205     35.170  35.817531     3.5181      7.967   209.0264 2.3322e+02     3.1395     -0.026     -0.037    25.9131 0.0000e+00
     -0.016      0.049     7.5776     93.263     35.171  35.818373     3.5160      7.959   209.3286 2.3042e+02     3.1050     -0.017     -0.025    25.9122 0.0000e+00
     -0.002      0.070     7.5611     93.059     35.149  35.796118     3.5143      7.951   209.6248 2.2451e+02     3.1240     -0.005     -0.007    25.9129 0.0000e+00
      0.022      0.084     7.5139     92.478     35.156  35.802528     3.5068      7.947   209.8548 2.0351e+02     3.1863      0.018      0.025    25.9148 0.0000e+00
      0.054      0.088     7.4324     91.473     35.186  35.832348     3.5073      7.950   210.3893 1.7003e+02     3.1865      0.053      0.076    25.9152 0.0000e+00
      0.087      0.082     7.3238     90.130     35.196  35.839063     3.5208      7.955   216.7752 1.4694e+02     3.1571      0.087      0.126    25.9146 0.0000e+00
      0.113      0.066     7.2031     88.634     35.182  35.820196     3.5417      7.962   223.7414 1.3908e+02     3.1666      0.115      0.166    25.9142 0.0000e+00
      0.128      0.046     7.0927     87.264     35.162  35.794788     3.5665      7.968   219.5049 1.3696e+02     3.2097      0.129      0.189    25.9139 0.0000e+00
      0.132      0.027     7.0208     86.369     35.157  35.785928     3.5825      7.969   213.2183 1.3398e+02     3.2204      0.131      0.190    25.9130 0.0000e+00
      0.128      0.014     7.0158     86.297     35.152  35.776591     3.6159      7.969   212.2596 1.2834e+02     3.1744      0.127      0.184    25.9098 0.0000e+00
      0.122      0.007     7.0915     87.220     35.125  35.745408     3.6754      7.968   212.3008 1.2369e+02     3.1418      0.118      0.172    25.9021 0.0000e+00
      0.121      0.005     7.2325     88.950     35.109  35.726504     3.7045      7.968   212.1681 1.1937e+02     3.1308      0.113      0.166    25.8937 0.0000e+00
      0.127      0.005     7.3975     90.976     35.122  35.738582     3.7006      7.969   212.0320 1.1433e+02     3.1329      0.124      0.180    25.8874 0.0000e+00
      0.136      0.005     7.5454     92.792     35.148  35.764397     3.6926      7.970   212.3757 1.1415e+02     3.1683      0.137      0.199    25.8814 0.0000e+00
      0.139      0.003     7.6524     94.107     35.168  35.784551     3.6459      7.969   212.8818 1.1949e+02     3.1310      0.138      0.201    25.8762 0.0000e+00
      0.135     -0.002     7.7047     94.748     35.176  35.791688     3.5586      7.967   212.8175 1.2536e+02     2.9870      0.131      0.189    25.8731 0.0000e+00
