* Sea-Bird SBE19plus  Data File:
* FileName = C:\DATA\08082018_ccr_50_0001.hex
* Software version 2.6.3.104 SB_Terminal.dll
* Temperature SN = 7809
* Conductivity SN = 7809
* System UpLoad Time = Aug 08 2018 13:08:43
* <ApplicationData>
* <Seaterm232>
* <SoftwareVersion>2.6.3.104</SoftwareVersion>
* <BuildDate>30-Jun-2017</BuildDate>
* </Seaterm232>
* </ApplicationData>
* cast   1 08 Aug 2018 14:10:00 samples 1 to 1370, avg = 1, stop = mag switch
# nquan = 15
# nvalues = 1056                        
# units = specified
# name 0 = depFM: Depth [fresh water, m]
# name 1 = dz/dtM: Descent Rate [m/s]
# name 2 = sbeox0Mg/L: Oxygen, SBE 43 [mg/l]
# name 3 = sbeox0PS: Oxygen, SBE 43 [% saturation]
# name 4 = specc: Specific Conductance [uS/cm]
# name 5 = c0uS/cm: Conductivity [uS/cm]
# name 6 = flECO-AFL: Fluorescence, WET Labs ECO-AFL/FL [mg/m^3]
# name 7 = ph: pH
# name 8 = orp: Oxidation Reduction Potential [mV]
# name 9 = par/sat/log: PAR/Logarithmic, Satlantic
# name 10 = turbWETntu0: Turbidity, WET Labs ECO [NTU]
# name 11 = prdM: Pressure, Strain Gauge [db]
# name 12 = prdE: Pressure, Strain Gauge [psi]
# name 13 = tv290C: Temperature [ITS-90, deg C]
# name 14 = flag:  0.000e+00
# span 0 =     -0.393,     20.816       
# span 1 =     -0.253,      0.356       
# span 2 =     0.8744,    10.1584       
# span 3 =      7.906,    113.514       
# span 4 =      1.612,    236.835       
# span 5 =   1.713175, 171.148463       
# span 6 =    -0.1889,     4.8875       
# span 7 =     -2.396,      8.153       
# span 8 = -1240.7455,   458.8211       
# span 9 = 1.2536e-01, 2.3325e+03       
# span 10 =    -0.6699,    15.4921      
# span 11 =     -0.387,     20.415      
# span 12 =     -0.561,     29.609      
# span 13 =    10.6473,    28.1458      
# span 14 = 0.0000e+00, 0.0000e+00      
# interval = seconds: 0.25
# start_time = Aug 08 2018 14:10:00 [Instrument's time stamp, header]
# bad_flag = -9.990e-29
# <Sensors count="9" >
#   <sensor Channel="1" >
#     <!-- Count, Temperature -->
#     <TemperatureSensor SensorID="58" >
#       <SerialNumber>7809</SerialNumber>
#       <CalibrationDate>09-Mar-18</CalibrationDate>
#       <A0>1.21093245e-003</A0>
#       <A1>2.84356597e-004</A1>
#       <A2>-1.94507398e-006</A2>
#       <A3>2.12806664e-007</A3>
#       <Slope>1.00000000</Slope>
#       <Offset>0.0000</Offset>
#     </TemperatureSensor>
#   </sensor>
#   <sensor Channel="2" >
#     <!-- Frequency 0, Conductivity -->
#     <ConductivitySensor SensorID="3" >
#       <SerialNumber>7809</SerialNumber>
#       <CalibrationDate>09-Mar-18</CalibrationDate>
#       <UseG_J>1</UseG_J>
#       <!-- Cell const and series R are applicable only for wide range sensors. -->
#       <SeriesR>0.0000</SeriesR>
#       <CellConst>2000.0000</CellConst>
#       <ConductivityType>0</ConductivityType>
#       <Coefficients equation="0" >
#         <A>0.00000000e+000</A>
#         <B>0.00000000e+000</B>
#         <C>0.00000000e+000</C>
#         <D>0.00000000e+000</D>
#         <M>0.0</M>
#         <CPcor>-9.57000000e-008</CPcor>
#       </Coefficients>
#       <Coefficients equation="1" >
#         <G>-1.00672082e+000</G>
#         <H>1.26906489e-001</H>
#         <I>-1.40584351e-004</I>
#         <J>2.47837121e-005</J>
#         <CPcor>-9.57000000e-008</CPcor>
#         <CTcor>3.2500e-006</CTcor>
#         <!-- WBOTC not applicable unless ConductivityType = 1. -->
#         <WBOTC>0.00000000e+000</WBOTC>
#       </Coefficients>
#       <Slope>1.00000000</Slope>
#       <Offset>0.00000</Offset>
#     </ConductivitySensor>
#   </sensor>
#   <sensor Channel="3" >
#     <!-- Count, Pressure, Strain Gauge -->
#     <PressureSensor SensorID="46" >
#       <SerialNumber>7809</SerialNumber>
#       <CalibrationDate>07-Mar-18</CalibrationDate>
#       <PA0>-4.08176359e-002</PA0>
#       <PA1>4.85188419e-004</PA1>
#       <PA2>-3.51168169e-012</PA2>
#       <PTEMPA0>-5.37806900e+001</PTEMPA0>
#       <PTEMPA1>5.36620721e+001</PTEMPA1>
#       <PTEMPA2>4.87214332e-002</PTEMPA2>
#       <PTCA0>5.25213435e+005</PTCA0>
#       <PTCA1>1.79532409e+000</PTCA1>
#       <PTCA2>-2.84353509e-001</PTCA2>
#       <PTCB0>2.51668750e+001</PTCB0>
#       <PTCB1>3.75000000e-004</PTCB1>
#       <PTCB2>0.00000000e+000</PTCB2>
#       <Offset>0.000000</Offset>
#     </PressureSensor>
#   </sensor>
#   <sensor Channel="4" >
#     <!-- A/D voltage 0, pH -->
#     <pH_Sensor SensorID="43" >
#       <SerialNumber>0363</SerialNumber>
#       <CalibrationDate>16-Mar-18</CalibrationDate>
#       <Slope>4.6194</Slope>
#       <Offset>2.5947</Offset>
#     </pH_Sensor>
#   </sensor>
#   <sensor Channel="5" >
#     <!-- A/D voltage 1, Oxidation Reduction Potential -->
#     <OxidationReductionPotentialSensor SensorID="41" >
#       <SerialNumber>0363</SerialNumber>
#       <CalibrationDate>16-Mar-18</CalibrationDate>
#       <B>2.499480</B>
#       <M>-0.496195</M>
#       <Offset>0.0</Offset>
#     </OxidationReductionPotentialSensor>
#   </sensor>
#   <sensor Channel="6" >
#     <!-- A/D voltage 2, Oxygen, SBE 43 -->
#     <OxygenSensor SensorID="38" >
#       <SerialNumber>0434</SerialNumber>
#       <CalibrationDate>13-Mar-18</CalibrationDate>
#       <Use2007Equation>1</Use2007Equation>
#       <CalibrationCoefficients equation="0" >
#         <!-- Coefficients for Owens-Millard equation. -->
#         <Boc>0.0000</Boc>
#         <Soc>0.0000e+000</Soc>
#         <offset>0.0000</offset>
#         <Pcor>0.00e+000</Pcor>
#         <Tcor>0.0000</Tcor>
#         <Tau>0.0</Tau>
#       </CalibrationCoefficients>
#       <CalibrationCoefficients equation="1" >
#         <!-- Coefficients for Sea-Bird equation - SBE calibration in 2007 and later. -->
#         <Soc>4.5718e-001</Soc>
#         <offset>-0.6113</offset>
#         <A>-4.0649e-003</A>
#         <B> 2.0945e-004</B>
#         <C>-3.3182e-006</C>
#         <D0> 2.5826e+000</D0>
#         <D1> 1.92634e-004</D1>
#         <D2>-4.64803e-002</D2>
#         <E> 3.6000e-002</E>
#         <Tau20> 1.2200</Tau20>
#         <H1>-3.3000e-002</H1>
#         <H2> 5.0000e+003</H2>
#         <H3> 1.4500e+003</H3>
#       </CalibrationCoefficients>
#     </OxygenSensor>
#   </sensor>
#   <sensor Channel="7" >
#     <!-- A/D voltage 3, PAR/Logarithmic, Satlantic -->
#     <PARLog_SatlanticSensor SensorID="76" >
#       <SerialNumber>1122</SerialNumber>
#       <CalibrationDate>22-Jun-2017</CalibrationDate>
#       <a0>9.6090e-001</a0>
#       <a1>8.0780e-001</a1>
#       <Im>1.3589e+000</Im>
#       <Multiplier>1.0000e+000</Multiplier>
#     </PARLog_SatlanticSensor>
#   </sensor>
#   <sensor Channel="8" >
#     <!-- A/D voltage 4, Fluorometer, WET Labs ECO-AFL/FL -->
#     <FluoroWetlabECO_AFL_FL_Sensor SensorID="20" >
#       <SerialNumber>FLNTURT-2496</SerialNumber>
#       <CalibrationDate>25-Jan-2017</CalibrationDate>
#       <ScaleFactor>5.30000000e+001</ScaleFactor>
#       <!-- Dark output -->
#       <Vblank>0.0560</Vblank>
#     </FluoroWetlabECO_AFL_FL_Sensor>
#   </sensor>
#   <sensor Channel="9" >
#     <!-- A/D voltage 5, Turbidity Meter, WET Labs, ECO-NTU -->
#     <TurbidityMeter SensorID="67" >
#       <SerialNumber>FLNTURT-2496</SerialNumber>
#       <CalibrationDate>25-Jan-2017</CalibrationDate>
#       <ScaleFactor>176.000000</ScaleFactor>
#       <!-- Dark output -->
#       <DarkVoltage>0.072000</DarkVoltage>
#     </TurbidityMeter>
#   </sensor>
# </Sensors>
# datcnv_date = Aug 08 2018 13:11:13, 7.26.7.114 [datcnv_vars = 14]
# datcnv_in = C:\DATA\08082018_ccr_50.hex C:\DATA\SBE19plusV2_7809.xmlcon
# datcnv_skipover = 0
# datcnv_ox_hysteresis_correction = yes
# datcnv_ox_tau_correction = yes
# filter_date = Aug 08 2018 13:12:56, 7.26.7.114
# filter_in = C:\DATA\08082018_ccr_50.cnv
# filter_low_pass_tc_A = 0.030
# filter_low_pass_tc_B = 0.150
# filter_low_pass_A_vars = prdM prdE tv290C
# filter_low_pass_B_vars = depFM dz/dtM sbeox0Mg/L sbeox0PS specc c0uS/cm flECO-AFL ph orp par/sat/log turbWETntu0
# alignctd_date = Aug 08 2018 13:13:29, 7.26.7.114
# alignctd_in = C:\DATA\08082018_ccr_50.cnv
# alignctd_adv = dz/dtM 1.000, sbeox0Mg/L 1.000, sbeox0PS 1.000, specc 1.000, c0uS/cm 1.000, flECO-AFL 1.000, ph 1.000, orp 1.000, turbWETntu0 1.000                                                                                 
# file_type = ascii
*END*
     -0.392 2.1570e-20     8.0077    102.571      1.687   1.792722    -0.1745      4.572 -1240.7455 1.9211e+03    -0.6699     -0.385     -0.558    28.1452 0.0000e+00
     -0.392 1.9609e-21     8.0081    102.575      1.686   1.791568    -0.1654      2.564 -1240.7455 1.6223e+03    -0.6436     -0.385     -0.558    28.1455 0.0000e+00
     -0.393 1.7827e-22     8.0087    102.583      1.673   1.777742    -0.1710     -0.307 -1240.7455 9.6768e+02    -0.6143     -0.385     -0.559    28.1458 0.0000e+00
     -0.393 1.6207e-23     8.0095    102.593      1.649   1.752377    -0.1790     -2.016 -1240.7455 4.5283e+02    -0.5905     -0.385     -0.559    28.1458 0.0000e+00
     -0.392 1.4795e-24     8.0096    102.593      1.635   1.738542    -0.1788     -2.362 -1240.7455 6.9447e+02    -0.6005     -0.385     -0.558    28.1456 0.0000e+00
     -0.392 2.0172e-25     8.0092    102.588      1.634   1.737284    -0.1769     -2.393 -1240.7455 1.4315e+03    -0.6433     -0.384     -0.557    28.1457 0.0000e+00
     -0.393 7.5781e-25     8.0098    102.594      1.634   1.737170    -0.1747     -2.396 -1240.7455 1.5518e+03    -0.6498     -0.385     -0.559    28.1457 0.0000e+00
     -0.393 8.2031e-24     8.0111    102.610      1.634   1.737160    -0.1716     -2.396 -1240.7455 9.9937e+02    -0.5266     -0.386     -0.559    28.1452 0.0000e+00
     -0.393 9.0222e-23     8.0120    102.622      1.634   1.737168    -0.1666     -2.396 -1240.7455 5.7852e+02    -0.3128     -0.385     -0.559    28.1449 0.0000e+00
     -0.393 9.9244e-22     8.0122    102.625      1.634   1.737271    -0.1601     -2.396 -1240.7455 4.0088e+02    -0.2011     -0.385     -0.559    28.1447 0.0000e+00
     -0.393 1.0917e-20     8.0116    102.617      1.635   1.738405    -0.1581     -2.396 -1240.7455 4.8704e+02    -0.2135     -0.385     -0.559    28.1441 0.0000e+00
     -0.393 1.2008e-19     8.0104    102.602      1.647   1.750879    -0.1690     -2.396 -1240.7455 9.6453e+02    -0.1890     -0.385     -0.559    28.1435 0.0000e+00
     -0.393 1.3209e-18     8.0096    102.592      1.657   1.761266    -0.1817     -2.396 -1240.7455 1.5202e+03    -0.0876     -0.385     -0.558    28.1433 0.0000e+00
     -0.393 1.4530e-17     8.0092    102.587      1.634   1.737169    -0.1827     -2.396 -1240.7455 1.8196e+03    -0.0247     -0.385     -0.559    28.1434 0.0000e+00
     -0.392 1.5983e-16     8.0086    102.580      1.612   1.713175    -0.1817     -2.396 -1240.7455 1.9412e+03    -0.0091     -0.385     -0.558    28.1436 0.0000e+00
     -0.392 1.7582e-15     8.0081    102.571      1.622   1.724809    -0.1782     -2.396 -1240.7455 1.9976e+03     0.0089     -0.384     -0.558    28.1439 0.0000e+00
     -0.392 1.9340e-14     8.0091    102.583      1.647   1.751004    -0.1687     -2.394 -1240.7455 1.6601e+03     0.0106     -0.384     -0.558    28.1441 0.0000e+00
     -0.392 2.1274e-13     8.0103    102.598      1.671   1.776246    -0.1675     -2.379 -1240.7455 1.2115e+03     0.0117     -0.385     -0.559    28.1443 0.0000e+00
     -0.392 2.3401e-12     8.0109    102.605      1.671   1.776349    -0.1731     -2.211 -1240.7455 1.4737e+03    -0.0085     -0.385     -0.558    28.1440 0.0000e+00
     -0.392 2.5741e-11     8.0123    102.623      1.649   1.752251    -0.1720     -1.158 -1240.7455 1.9394e+03     0.0107     -0.385     -0.558    28.1432 0.0000e+00
     -0.392 2.8315e-10     8.0124    102.624      1.635   1.738531    -0.1730      0.917 -1240.7455 2.0587e+03     0.1216     -0.385     -0.558    28.1426 0.0000e+00
     -0.393 3.1147e-09     8.0110    102.605      1.634   1.737300    -0.1842      2.666 -1240.7455 2.1550e+03     0.2036     -0.385     -0.559    28.1424 0.0000e+00
     -0.393 3.4262e-08     8.0104    102.598      1.634   1.737363    -0.1889      3.412 -1240.7451 2.0654e+03     0.2395     -0.385     -0.559    28.1423 0.0000e+00
     -0.392 3.7688e-07     8.0103    102.595      1.636   1.739283    -0.1750      3.563 -1240.7414 1.4813e+03     0.2501     -0.385     -0.558    28.1421 0.0000e+00
     -0.392      0.000     8.0099    102.590      1.656   1.760526    -0.1633      3.434 -1240.7009 1.0857e+03     0.1176     -0.384     -0.558    28.1418 0.0000e+00
     -0.392      0.000     8.0104    102.595      1.757   1.867386    -0.1665      3.178 -1240.2554 1.5196e+03    -0.1106     -0.385     -0.558    28.1419 0.0000e+00
     -0.393      0.001     8.0109    102.598      2.734   2.904491    -0.1677      2.811 -1235.3543 2.1214e+03    -0.2206     -0.386     -0.560    28.1414 0.0000e+00
     -0.393      0.006     8.0132    102.599     13.292  14.109813    -0.1591      2.514 -1181.4423 2.3325e+03    -0.2364     -0.385     -0.559    28.1417 0.0000e+00
     -0.393      0.021     8.0248    102.628     38.605  40.922712    -0.1459      2.957  -588.4104 2.3216e+03    -0.2404     -0.385     -0.559    28.1404 0.0000e+00
     -0.393      0.048     8.0471    102.690     66.417  70.266485    -0.1455      4.297   296.3616 2.2500e+03    -0.2379     -0.385     -0.559    28.1418 0.0000e+00
     -0.390      0.084     8.0708    102.768     84.351  89.066455    -0.1630      5.684   458.8211 2.1704e+03    -0.2367     -0.387     -0.561    28.1390 0.0000e+00
     -0.373      0.127     8.0901    102.848     90.404  95.311056    -0.1642      6.593   252.4588 2.1050e+03    -0.1648     -0.378     -0.546    28.1418 0.0000e+00
     -0.330      0.174     8.1081    102.964     90.414  95.213588    -0.0507      7.098   215.2564 2.0752e+03     0.4479     -0.331     -0.478    28.0832 0.0000e+00
     -0.268      0.219     8.1311    103.184     89.937  94.641014     0.1532      7.353   201.4799 2.0667e+03     1.5254     -0.263     -0.382    27.9201 0.0000e+00
     -0.199      0.259     8.1636    103.546     89.611  94.249134     0.2698      7.493   195.2443 2.0433e+03     2.0902     -0.196     -0.284    27.7849 0.0000e+00
     -0.128      0.286     8.2070    104.056     89.453  94.042875     0.3026      7.578   191.3134 1.9801e+03     2.0891     -0.129     -0.187    27.7008 0.0000e+00
     -0.048      0.300     8.2617    104.716     89.437  93.994540     0.3937      7.630   188.5389 1.8460e+03     1.6040     -0.052     -0.076    27.6384 0.0000e+00
      0.037      0.301     8.3266    105.515     89.509  94.046896     0.5350      7.665   187.7687 1.3627e+03     0.7110      0.038      0.055    27.6060 0.0000e+00
      0.120      0.291     8.3958    106.377     89.757  94.293632     0.5958      7.685   187.3357 5.9488e+02     0.2327      0.121      0.174    27.5800 0.0000e+00
      0.197      0.265     8.4614    107.202     90.135  94.684369     0.5950      7.697   185.7126 1.7230e+02     0.1855      0.194      0.280    27.5570 0.0000e+00
      0.268      0.221     8.5164    107.906     90.319  94.885178     0.6182      7.712   184.0611 1.1464e+02     0.2025      0.268      0.388    27.5396 0.0000e+00
      0.329      0.166     8.5530    108.398     90.283  94.874128     0.6645      7.732   183.9721 1.0246e+02     0.2545      0.330      0.477    27.5271 0.0000e+00
      0.371      0.110     8.5684    108.628     90.188  94.805645     0.7049      7.751   184.5513 9.9979e+01     0.2646      0.372      0.540    27.5193 0.0000e+00
      0.386      0.059     8.5665    108.623     90.065  94.694281     0.7114      7.766   183.9225 1.0452e+02     0.2326      0.390      0.566    27.5149 0.0000e+00
      0.376      0.015     8.5447    108.345     89.804  94.419553     0.6967      7.778   182.9092 1.1100e+02     0.2041      0.370      0.537    27.5158 0.0000e+00
      0.359     -0.015     8.4903    107.645     89.446  94.032172     0.6828      7.789   183.0540 1.1135e+02     0.1944      0.346      0.502    27.5340 0.0000e+00
      0.351     -0.029     8.3900    106.360     89.269  93.832794     0.6731      7.797   183.2642 1.0978e+02     0.2077      0.345      0.501    27.5577 0.0000e+00
      0.344     -0.031     8.2308    104.334     89.298  93.856316     0.6702      7.806   182.4391 1.0918e+02     0.2423      0.341      0.495    27.5675 0.0000e+00
      0.333     -0.023     8.0168    101.622     89.371  93.934334     0.6762      7.817   181.7683 1.0413e+02     0.2460      0.324      0.469    27.5657 0.0000e+00
      0.328     -0.011     7.7860     98.701     89.440  94.011653     0.6803      7.828   181.4346 9.6921e+01     0.2221      0.319      0.463    27.5577 0.0000e+00
      0.328      0.005     7.5917     96.241     89.511  94.090434     0.6834      7.839   180.6409 9.1757e+01     0.2280      0.324      0.470    27.5479 0.0000e+00
      0.326      0.029     7.4614     94.590     89.541  94.122421     0.6866      7.851   180.6038 8.8837e+01     0.2264      0.317      0.459    27.5444 0.0000e+00
      0.329      0.059     7.3784     93.540     89.561  94.143580     0.6818      7.864   181.8463 8.8795e+01     0.2021      0.317      0.460    27.5463 0.0000e+00
      0.345      0.090     7.3164     92.753     89.572  94.155148     0.6718      7.874   183.1885 8.8819e+01     0.2087      0.336      0.487    27.5497 0.0000e+00
      0.374      0.119     7.2634     92.082     89.492  94.071158     0.6662      7.884   184.4420 8.6839e+01     0.2456      0.362      0.524    27.5521 0.0000e+00
      0.415      0.142     7.2083     91.382     89.382  93.956236     0.6691      7.894   185.5595 8.4556e+01     0.2520      0.403      0.585    27.5520 0.0000e+00
      0.465      0.156     7.1380     90.489     89.282  93.848620     0.6788      7.903   186.0306 8.1612e+01     0.2242      0.456      0.662    27.5516 0.0000e+00
      0.514      0.158     7.0505     89.370     89.174  93.725539     0.6924      7.911   186.1807 7.8283e+01     0.2143      0.507      0.735    27.5517 0.0000e+00
      0.556      0.149     6.9501     88.081     89.088  93.614724     0.6964      7.917   186.2564 7.6153e+01     0.2243      0.548      0.794    27.5524 0.0000e+00
      0.592      0.134     6.8526     86.822     89.031  93.527995     0.6902      7.922   186.3438 7.5330e+01     0.2229      0.580      0.842    27.5526 0.0000e+00
      0.623      0.118     6.7916     86.026     89.034  93.505003     0.6902      7.927   186.7204 7.5264e+01     0.1982      0.612      0.889    27.5518 0.0000e+00
      0.650      0.104     6.8019     86.136     89.138  93.591499     0.6970      7.932   186.9386 7.5299e+01     0.1690      0.641      0.930    27.5481 0.0000e+00
      0.670      0.091     6.8920     87.263     89.240  93.681927     0.6987      7.938   186.7451 7.5442e+01     0.1747      0.656      0.952    27.5359 0.0000e+00
      0.689      0.076     7.0322     89.028     89.215  93.642775     0.6929      7.944   186.7901 7.5342e+01     0.2069      0.672      0.975    27.5187 0.0000e+00
      0.713      0.060     7.1758     90.838     89.087  93.500319     0.6909      7.951   187.2240 7.5088e+01     0.2230      0.701      1.016    27.5031 0.0000e+00
      0.733      0.044     7.2858     92.226     88.959  93.360963     0.7017      7.958   187.6039 7.5290e+01     0.2165      0.724      1.050    27.4906 0.0000e+00
      0.742      0.029     7.3462     92.987     88.901  93.295590     0.7224      7.963   188.0272 7.5742e+01     0.2190      0.731      1.060    27.4810 0.0000e+00
      0.743      0.014     7.3573     93.123     88.891  93.283220     0.7393      7.968   188.3842 7.6299e+01     0.2228      0.729      1.058    27.4744 0.0000e+00
