* Sea-Bird SBE19plus  Data File:
* FileName = C:\DATA\082718_fcr_0006.hex
* Software version 2.6.3.104
* Temperature SN = 7809
* Conductivity SN = 7809
* System UpLoad Time = Aug 27 2018 20:57:10
* <ApplicationData>
* <Seaterm232>
* <SoftwareVersion>2.6.3.104</SoftwareVersion>
* <BuildDate>30-Jun-2017</BuildDate>
* </Seaterm232>
* </ApplicationData>
* <InstrumentState>
* <HardwareData DeviceType='SBE19plus' SerialNumber='01907809'>
*
*    <Manufacturer>Sea-Bird Electronics, Inc.</Manufacturer>
*
*    <FirmwareVersion>3.1.8</FirmwareVersion>
*
*    <FirmwareDate>Mar  9 2016 16:22:29</FirmwareDate>
*
*    <CommandSetVersion>1.4</CommandSetVersion>
*
*    <PCBAssembly PCBSerialNum='120721' AssemblyNum='41054J'/>
*
*    <PCBAssembly PCBSerialNum='120715' AssemblyNum='41967A'/>
*
*    <PCBAssembly PCBSerialNum='116699' AssemblyNum='41606'/>
*
*    <PCBAssembly PCBSerialNum='120719' AssemblyNum='41059D'/>
*
*    <MfgDate>28-Apr-2017</MfgDate>
*
*    <InternalSensors>
*
*       <Sensor id='Main Temperature'>
*
*          <type>temperature0</type>
*
*          <SerialNumber>01907809</SerialNumber>
*
*       </Sensor>
*
*       <Sensor id='Main Conductivity'>
*
*          <type>conductivity-0</type>
*
*          <SerialNumber>01907809</SerialNumber>
*
*       </Sensor>
*
*       <Sensor id='Main Pressure'>
*
*          <type>strain-0</type>
*
*          <SerialNumber>10586018</SerialNumber>
*
*       </Sensor>
*
*    </InternalSensors>
*
*    <ExternalSensors>
*
*       <Sensor id='volt 0'>
*
*          <type>pH</type>
*
*          <SerialNumber>27-0363</SerialNumber>
*
*       </Sensor>
*
*       <Sensor id='volt 1'>
*
*          <type>ORP</type>
*
*          <SerialNumber>27-0363</SerialNumber>
*
*       </Sensor>
*
*       <Sensor id='volt 2'>
*
*          <type>OXY</type>
*
*          <SerialNumber>43-0434</SerialNumber>
*
*       </Sensor>
*
*       <Sensor id='volt 3'>
*
*          <type>PAR</type>
*
*          <SerialNumber>1122</SerialNumber>
*
*       </Sensor>
*
*       <Sensor id='volt 4'>
*
*          <type>ECO AFL/FL</type>
*
*          <SerialNumber>FLNTURT-2496</SerialNumber>
*
*       </Sensor>
*
*       <Sensor id='volt 5'>
*
*          <type>ECO-NTU</type>
*
*          <SerialNumber>FLNTURT-2496</SerialNumber>
*
*       </Sensor>
*
*       <Sensor id='serial'>
*
*          <type>not assigned</type>
*
*          <SerialNumber>not assigned</SerialNumber>
*
*       </Sensor>
*
*    </ExternalSensors>
*
* </HardwareData>
* <StatusData DeviceType='SBE19plus' SerialNumber='01907809'>
*
*    <DateTime>2018-08-28T00:54:17</DateTime>
*
*    <LoggingState>not logging</LoggingState>
*
*    <EventSummary numEvents='0'/>
*
*    <Power>
*
*       <vMain>12.9</vMain>
*
*       <vLith>8.8</vLith>
*
*       <iMain>63.3</iMain>
*
*       <iPump>41.6</iPump>
*
*       <iExt01>13.8</iExt01>
*
*       <iExt2345>42.0</iExt2345>
*
*    </Power>
*
*    <MemorySummary>
*
*       <Bytes>168268</Bytes>
*
*       <Samples>7316</Samples>
*
*       <SamplesFree>2853472</SamplesFree>
*
*       <SampleLength>23</SampleLength>
*
*       <Profiles>7</Profiles>
*
*    </MemorySummary>
*
* </StatusData>
* <ConfigurationData DeviceType='SBE19plus' SerialNumber='01907809'>
*
*    <ProfileMode>
*
*       <ScansToAverage>1</ScansToAverage>
*
*       <MinimumCondFreq>5</MinimumCondFreq>
*
*       <PumpDelay>45</PumpDelay>
*
*       <AutoRun>no</AutoRun>
*
*       <IgnoreSwitch>no</IgnoreSwitch>
*
*    </ProfileMode>
*
*    <Battery>
*
*       <Type>alkaline</Type>
*
*       <CutOff>7.5</CutOff>
*
*    </Battery>
*
*    <DataChannels>
*
*       <ExtVolt0>yes</ExtVolt0>
*
*       <ExtVolt1>yes</ExtVolt1>
*
*       <ExtVolt2>yes</ExtVolt2>
*
*       <ExtVolt3>yes</ExtVolt3>
*
*       <ExtVolt4>yes</ExtVolt4>
*
*       <ExtVolt5>yes</ExtVolt5>
*
*       <SBE38>no</SBE38>
*
*       <WETLABS>no</WETLABS>
*
*       <OPTODE>no</OPTODE>
*
*       <SBE63>no</SBE63>
*
*       <SeaFET>no</SeaFET>
*
*       <GTD>no</GTD>
*
*    </DataChannels>
*
*    <EchoCharacters>yes</EchoCharacters>
*
*    <OutputExecutedTag>yes</OutputExecutedTag>
*
*    <OutputFormat>raw HEX</OutputFormat>
*
* </ConfigurationData>
* <CalibrationCoefficients DeviceType='SBE19plus' SerialNumber='01907809'>
*
*    <Calibration format='TEMP1' id='Main Temperature'>
*
*       <SerialNum>01907809</SerialNum>
*
*       <CalDate>09-Mar-18</CalDate>
*
*       <TA0>1.210932e-03</TA0>
*
*       <TA1>2.843566e-04</TA1>
*
*       <TA2>-1.945074e-06</TA2>
*
*       <TA3>2.128067e-07</TA3>
*
*       <TOFFSET>0.000000e+00</TOFFSET>
*
*    </Calibration>
*
*    <Calibration format='WBCOND0' id='Main Conductivity'>
*
*       <SerialNum>01907809</SerialNum>
*
*       <CalDate>09-Mar-18</CalDate>
*
*       <G>-1.006721e+00</G>
*
*       <H>1.269065e-01</H>
*
*       <I>-1.405844e-04</I>
*
*       <J>2.478371e-05</J>
*
*       <CPCOR>-9.570000e-08</CPCOR>
*
*       <CTCOR>3.250000e-06</CTCOR>
*
*       <CSLOPE>1.000000e+00</CSLOPE>
*
*    </Calibration>
*
*    <Calibration format='STRAIN0' id='Main Pressure'>
*
*       <SerialNum>10586018</SerialNum>
*
*       <CalDate>07-Mar-18</CalDate>
*
*       <PA0>-4.081764e-02</PA0>
*
*       <PA1>4.851884e-04</PA1>
*
*       <PA2>-3.511682e-12</PA2>
*
*       <PTCA0>5.252134e+05</PTCA0>
*
*       <PTCA1>1.795324e+00</PTCA1>
*
*       <PTCA2>-2.843535e-01</PTCA2>
*
*       <PTCB0>2.516687e+01</PTCB0>
*
*       <PTCB1>3.750000e-04</PTCB1>
*
*       <PTCB2>0.000000e+00</PTCB2>
*
*       <PTEMPA0>-5.378069e+01</PTEMPA0>
*
*       <PTEMPA1>5.366207e+01</PTEMPA1>
*
*       <PTEMPA2>4.872143e-02</PTEMPA2>
*
*       <POFFSET>5.000000e-01</POFFSET>
*
*       <PRANGE>1.600000e+02</PRANGE>
*
*    </Calibration>
*
*    <Calibration format='VOLT0' id='Volt 0'>
*
*       <OFFSET>-4.920000e-02</OFFSET>
*
*       <SLOPE>1.248122e+00</SLOPE>
*
*    </Calibration>
*
*    <Calibration format='VOLT0' id='Volt 1'>
*
*       <OFFSET>-4.784000e-02</OFFSET>
*
*       <SLOPE>1.248871e+00</SLOPE>
*
*    </Calibration>
*
*    <Calibration format='VOLT0' id='Volt 2'>
*
*       <OFFSET>-4.864632e-02</OFFSET>
*
*       <SLOPE>1.248714e+00</SLOPE>
*
*    </Calibration>
*
*    <Calibration format='VOLT0' id='Volt 3'>
*
*       <OFFSET>-4.743790e-02</OFFSET>
*
*       <SLOPE>1.248571e+00</SLOPE>
*
*    </Calibration>
*
*    <Calibration format='VOLT0' id='Volt 4'>
*
*       <OFFSET>-4.671263e-02</OFFSET>
*
*       <SLOPE>1.248951e+00</SLOPE>
*
*    </Calibration>
*
*    <Calibration format='VOLT0' id='Volt 5'>
*
*       <OFFSET>-4.871053e-02</OFFSET>
*
*       <SLOPE>1.249136e+00</SLOPE>
*
*    </Calibration>
*
*    <Calibration format='FREQ0' id='external frequency channel'>
*
*       <EXTFREQSF>1.000014e+00</EXTFREQSF>
*
*    </Calibration>
*
* </CalibrationCoefficients>
* <EventCounters DeviceType='SBE19plus' SerialNumber='01907809'>
*
*    <EventSummary numEvents='0'/>
*
* </EventCounters></InstrumentState>
* <Headers>
*
* cast   6 27 Aug 2018 20:00:10 samples 5059 to 6139, avg = 1, stop = mag switch
*
# nquan = 17
# nvalues = 882                         
# units = specified
# name 0 = depFM: Depth [fresh water, m]
# name 1 = tv290C: Temperature [ITS-90, deg C]
# name 2 = sbeox0Mg/L: Oxygen, SBE 43 [mg/l]
# name 3 = sbeox0PS: Oxygen, SBE 43 [% saturation]
# name 4 = c0uS/cm: Conductivity [uS/cm]
# name 5 = specc: Specific Conductance [uS/cm]
# name 6 = ph: pH
# name 7 = orp: Oxidation Reduction Potential [mV]
# name 8 = flECO-AFL: Fluorescence, WET Labs ECO-AFL/FL [mg/m^3]
# name 9 = turbWETntu0: Turbidity, WET Labs ECO [NTU]
# name 10 = sal00: Salinity, Practical [PSU]
# name 11 = dz/dtM: Descent Rate [m/s]
# name 12 = prdM: Pressure, Strain Gauge [db]
# name 13 = prdE: Pressure, Strain Gauge [psi]
# name 14 = scan: Scan Count
# name 15 = par/sat/log: PAR/Logarithmic, Satlantic
# name 16 = flag:  0.000e+00
# span 0 =     -0.515,      5.376       
# span 1 =    12.7191,    27.9415       
# span 2 =     0.0697,     9.7983       
# span 3 =      0.658,    120.655       
# span 4 =   0.634066,  68.817219       
# span 5 =      0.981,     89.213       
# span 6 =      6.373,      8.679       
# span 7 =    64.4211,   247.8395       
# span 8 =    -0.4973,    13.8535       
# span 9 =    -7.7574,    22.7778       
# span 10 =     0.0128,     0.0437      
# span 11 =     -0.040,      0.274      
# span 12 =     -0.505,      5.271      
# span 13 =     -0.733,      7.646      
# span 14 =          1,        882      
# span 15 = 6.5956e-01, 1.9848e+03      
# span 16 = 0.0000e+00, 0.0000e+00      
# interval = seconds: 0.25
# start_time = Aug 27 2018 20:00:10 [Instrument's time stamp, header]
# bad_flag = -9.990e-29
# <Sensors count="9" >
#   <sensor Channel="1" >
#     <!-- Count, Temperature -->
#     <TemperatureSensor SensorID="58" >
#       <SerialNumber>7809</SerialNumber>
#       <CalibrationDate>09-Mar-18</CalibrationDate>
#       <A0>1.21093245e-003</A0>
#       <A1>2.84356597e-004</A1>
#       <A2>-1.94507398e-006</A2>
#       <A3>2.12806664e-007</A3>
#       <Slope>1.00000000</Slope>
#       <Offset>0.0000</Offset>
#     </TemperatureSensor>
#   </sensor>
#   <sensor Channel="2" >
#     <!-- Frequency 0, Conductivity -->
#     <ConductivitySensor SensorID="3" >
#       <SerialNumber>7809</SerialNumber>
#       <CalibrationDate>09-Mar-18</CalibrationDate>
#       <UseG_J>1</UseG_J>
#       <!-- Cell const and series R are applicable only for wide range sensors. -->
#       <SeriesR>0.0000</SeriesR>
#       <CellConst>2000.0000</CellConst>
#       <ConductivityType>0</ConductivityType>
#       <Coefficients equation="0" >
#         <A>0.00000000e+000</A>
#         <B>0.00000000e+000</B>
#         <C>0.00000000e+000</C>
#         <D>0.00000000e+000</D>
#         <M>0.0</M>
#         <CPcor>-9.57000000e-008</CPcor>
#       </Coefficients>
#       <Coefficients equation="1" >
#         <G>-1.00672082e+000</G>
#         <H>1.26906489e-001</H>
#         <I>-1.40584351e-004</I>
#         <J>2.47837121e-005</J>
#         <CPcor>-9.57000000e-008</CPcor>
#         <CTcor>3.2500e-006</CTcor>
#         <!-- WBOTC not applicable unless ConductivityType = 1. -->
#         <WBOTC>0.00000000e+000</WBOTC>
#       </Coefficients>
#       <Slope>1.00000000</Slope>
#       <Offset>0.00000</Offset>
#     </ConductivitySensor>
#   </sensor>
#   <sensor Channel="3" >
#     <!-- Count, Pressure, Strain Gauge -->
#     <PressureSensor SensorID="46" >
#       <SerialNumber>7809</SerialNumber>
#       <CalibrationDate>07-Mar-18</CalibrationDate>
#       <PA0>-4.08176359e-002</PA0>
#       <PA1>4.85188419e-004</PA1>
#       <PA2>-3.51168169e-012</PA2>
#       <PTEMPA0>-5.37806900e+001</PTEMPA0>
#       <PTEMPA1>5.36620721e+001</PTEMPA1>
#       <PTEMPA2>4.87214332e-002</PTEMPA2>
#       <PTCA0>5.25213435e+005</PTCA0>
#       <PTCA1>1.79532409e+000</PTCA1>
#       <PTCA2>-2.84353509e-001</PTCA2>
#       <PTCB0>2.51668750e+001</PTCB0>
#       <PTCB1>3.75000000e-004</PTCB1>
#       <PTCB2>0.00000000e+000</PTCB2>
#       <Offset>0.000000</Offset>
#     </PressureSensor>
#   </sensor>
#   <sensor Channel="4" >
#     <!-- A/D voltage 0, pH -->
#     <pH_Sensor SensorID="43" >
#       <SerialNumber>0363</SerialNumber>
#       <CalibrationDate>16-Mar-18</CalibrationDate>
#       <Slope>4.6194</Slope>
#       <Offset>2.5947</Offset>
#     </pH_Sensor>
#   </sensor>
#   <sensor Channel="5" >
#     <!-- A/D voltage 1, Oxidation Reduction Potential -->
#     <OxidationReductionPotentialSensor SensorID="41" >
#       <SerialNumber>0363</SerialNumber>
#       <CalibrationDate>16-Mar-18</CalibrationDate>
#       <B>2.499480</B>
#       <M>-0.496195</M>
#       <Offset>0.0</Offset>
#     </OxidationReductionPotentialSensor>
#   </sensor>
#   <sensor Channel="6" >
#     <!-- A/D voltage 2, Oxygen, SBE 43 -->
#     <OxygenSensor SensorID="38" >
#       <SerialNumber>0434</SerialNumber>
#       <CalibrationDate>13-Mar-18</CalibrationDate>
#       <Use2007Equation>1</Use2007Equation>
#       <CalibrationCoefficients equation="0" >
#         <!-- Coefficients for Owens-Millard equation. -->
#         <Boc>0.0000</Boc>
#         <Soc>0.0000e+000</Soc>
#         <offset>0.0000</offset>
#         <Pcor>0.00e+000</Pcor>
#         <Tcor>0.0000</Tcor>
#         <Tau>0.0</Tau>
#       </CalibrationCoefficients>
#       <CalibrationCoefficients equation="1" >
#         <!-- Coefficients for Sea-Bird equation - SBE calibration in 2007 and later. -->
#         <Soc>4.5718e-001</Soc>
#         <offset>-0.6113</offset>
#         <A>-4.0649e-003</A>
#         <B> 2.0945e-004</B>
#         <C>-3.3182e-006</C>
#         <D0> 2.5826e+000</D0>
#         <D1> 1.92634e-004</D1>
#         <D2>-4.64803e-002</D2>
#         <E> 3.6000e-002</E>
#         <Tau20> 1.2200</Tau20>
#         <H1>-3.3000e-002</H1>
#         <H2> 5.0000e+003</H2>
#         <H3> 1.4500e+003</H3>
#       </CalibrationCoefficients>
#     </OxygenSensor>
#   </sensor>
#   <sensor Channel="7" >
#     <!-- A/D voltage 3, PAR/Logarithmic, Satlantic -->
#     <PARLog_SatlanticSensor SensorID="76" >
#       <SerialNumber>1122</SerialNumber>
#       <CalibrationDate>22-Jun-2017</CalibrationDate>
#       <a0>9.6090e-001</a0>
#       <a1>8.0780e-001</a1>
#       <Im>1.3589e+000</Im>
#       <Multiplier>1.0000e+000</Multiplier>
#     </PARLog_SatlanticSensor>
#   </sensor>
#   <sensor Channel="8" >
#     <!-- A/D voltage 4, Fluorometer, WET Labs ECO-AFL/FL -->
#     <FluoroWetlabECO_AFL_FL_Sensor SensorID="20" >
#       <SerialNumber>FLNTURT-2496</SerialNumber>
#       <CalibrationDate>25-Jan-2017</CalibrationDate>
#       <ScaleFactor>5.30000000e+001</ScaleFactor>
#       <!-- Dark output -->
#       <Vblank>0.0560</Vblank>
#     </FluoroWetlabECO_AFL_FL_Sensor>
#   </sensor>
#   <sensor Channel="9" >
#     <!-- A/D voltage 5, Turbidity Meter, WET Labs, ECO-NTU -->
#     <TurbidityMeter SensorID="67" >
#       <SerialNumber>FLNTURT-2496</SerialNumber>
#       <CalibrationDate>25-Jan-2017</CalibrationDate>
#       <ScaleFactor>176.000000</ScaleFactor>
#       <!-- Dark output -->
#       <DarkVoltage>0.072000</DarkVoltage>
#     </TurbidityMeter>
#   </sensor>
# </Sensors>
# datcnv_date = Aug 27 2018 21:10:57, 7.26.7.114 [datcnv_vars = 16]
# datcnv_in = C:\DATA\082718_fcr30.hex C:\DATA\SBE19plusV2_7809.xmlcon
# datcnv_skipover = 0
# datcnv_ox_hysteresis_correction = yes
# datcnv_ox_tau_correction = yes
# filter_date = Aug 27 2018 21:11:27, 7.26.7.114
# filter_in = C:\DATA\082718_fcr30.cnv
# filter_low_pass_tc_A = 0.030
# filter_low_pass_tc_B = 0.150
# filter_low_pass_A_vars = tv290C c0uS/cm par/sat/log
# filter_low_pass_B_vars = prdM prdE
# alignctd_date = Aug 27 2018 21:11:52, 7.26.7.114
# alignctd_in = C:\DATA\082718_fcr30.cnv
# alignctd_adv = tv290C 0.500, sbeox0Mg/L 3.000, sbeox0PS 3.000                                                                                                                                                                      
# file_type = ascii
*END*
     -0.515    27.9415     8.2348    102.893   1.324469      0.981      6.434    64.4211    -0.4812    -0.4257     0.0128      0.000     -0.505     -0.733          1 1.3803e+03 0.0000e+00
     -0.515    27.9412     8.2537    103.071   0.634066      1.034      6.443    65.3675    -0.4892    -0.4929     0.0128      0.000     -0.503     -0.730          2 1.2704e+03 0.0000e+00
     -0.515    27.9318     8.2506    103.063   1.783434      0.982      6.446    79.2611    -0.4973    -0.5734     0.0128      0.000     -0.479     -0.695          3 1.2086e+03 0.0000e+00
     -0.433    27.9154     8.2372    102.922  20.243593     19.144      6.878    88.9147     1.6984    -7.7037     0.0182      0.022     -0.399     -0.579          4 1.7489e+03 0.0000e+00
     -0.265    27.7869     8.2184    102.658  38.520845     37.040      7.672   102.8462     1.6701    -7.7574     0.0252      0.082     -0.275     -0.399          5 1.8813e+03 0.0000e+00
     -0.151    27.4832     8.2014    102.364  39.472291     36.892      8.123   113.0677     1.6943    -7.7574     0.0252      0.155     -0.170     -0.246          6 1.8336e+03 0.0000e+00
     -0.103    27.1641     8.1652    101.842  38.360592     36.582      8.364   117.2698     1.6741    -7.7574     0.0250      0.218     -0.110     -0.160          7 1.8966e+03 0.0000e+00
     -0.079    26.9577     8.0628    100.537  38.480630     36.478      8.485   129.8006     1.6741    15.5132     0.0249      0.259     -0.083     -0.121          8 1.8565e+03 0.0000e+00
     -0.072    26.8366     7.9137     98.690  38.255218     36.783      8.527   131.8827     1.2657    22.6032     0.0249      0.274     -0.072     -0.105          9 1.8703e+03 0.0000e+00
     -0.071    26.7794     7.8438     97.884  38.403973     36.874      8.540   138.5456     1.2616    22.7778     0.0249      0.260     -0.066     -0.096         10 1.8535e+03 0.0000e+00
     -0.059    26.7466     7.8806     98.396  38.384605     37.069      8.523   139.5677     1.2414    22.5898     0.0250      0.220     -0.055     -0.079         11 1.8258e+03 0.0000e+00
     -0.036    26.7199     7.9699     99.505  38.546341     37.191      8.494   141.5363     1.2172    22.6838     0.0250      0.157     -0.035     -0.052         12 1.7633e+03 0.0000e+00
     -0.013    26.7326     7.9652     99.390  38.617994     37.320      8.463   143.8835     2.5314     2.3404     0.0250      0.095     -0.018     -0.027         13 1.7284e+03 0.0000e+00
     -0.010    26.7481     8.0380    100.303  38.651398     37.370      8.411   146.2685     2.5233     2.2733     0.0251      0.061     -0.012     -0.018         14 1.7277e+03 0.0000e+00
     -0.015    26.7309     8.2255    102.744  38.445459     37.141      8.401   147.5556     2.5475     2.2867     0.0250      0.046     -0.015     -0.023         15 1.7964e+03 0.0000e+00
     -0.023    26.6886     8.4391    105.508  38.370027     37.078      8.398   147.3285     2.5192     2.2733     0.0250      0.037     -0.021     -0.031         16 1.8597e+03 0.0000e+00
     -0.028    26.6503     8.5939    107.501  38.270680     36.981      8.396   148.0478     2.6688     1.2796     0.0249      0.029     -0.026     -0.037         17 1.8825e+03 0.0000e+00
     -0.028    26.6340     8.6525    108.270  38.213164     36.958      8.391   150.1678     2.6405     1.3065     0.0249      0.019     -0.029     -0.042         18 1.9001e+03 0.0000e+00
     -0.033    26.6427     8.6299    108.003  38.293315     37.067      8.382   149.9406     2.6446     1.2931     0.0249      0.006     -0.032     -0.047         19 1.8785e+03 0.0000e+00
     -0.037    26.6781     8.5944    107.571  38.319260     37.105      8.382   150.0921     2.6567     1.2931     0.0249     -0.007     -0.035     -0.050         20 1.8115e+03 0.0000e+00
     -0.034    26.7082     8.5499    107.016  38.388514     37.154      8.372   150.0163     2.6082     1.2259     0.0250     -0.014     -0.039     -0.055         21 1.7416e+03 0.0000e+00
     -0.046    26.7037     8.4654    105.950  38.503741     37.262      8.360   149.5621     2.6163     1.2393     0.0250     -0.016     -0.050     -0.071         22 1.6018e+03 0.0000e+00
     -0.071    26.6740     8.3370    104.332  38.531789     37.241      8.356   149.5621     2.6082     1.4005     0.0250     -0.021     -0.067     -0.096         23 1.5017e+03 0.0000e+00
     -0.085    26.6774     8.2154    102.804  38.531567     37.270      8.370   151.2656     2.6122     1.3602     0.0250     -0.027     -0.080     -0.116         24 1.5854e+03 0.0000e+00
