* Sea-Bird SBE19plus  Data File:
* FileName = C:\DATA\SBE19plus_01907809_2018_09_12_0002.hex
* Software version 2.6.3.104 SB_Terminal.dll
* Temperature SN = 7809
* Conductivity SN = 7809
* System UpLoad Time = Sep 12 2018 18:48:09
* <ApplicationData>
* <Seaterm232>
* <SoftwareVersion>2.6.3.104</SoftwareVersion>
* <BuildDate>30-Jun-2017</BuildDate>
* </Seaterm232>
* </ApplicationData>
* cast   2 12 Sep 2018 20:26:48 samples 2297 to 3530, avg = 1, stop = mag switch
# nquan = 15
# nvalues = 1113                        
# units = specified
# name 0 = depFM: Depth [fresh water, m]
# name 1 = dz/dtM: Descent Rate [m/s]
# name 2 = sbeox0Mg/L: Oxygen, SBE 43 [mg/l]
# name 3 = sbeox0PS: Oxygen, SBE 43 [% saturation]
# name 4 = specc: Specific Conductance [uS/cm]
# name 5 = c0uS/cm: Conductivity [uS/cm]
# name 6 = flECO-AFL: Fluorescence, WET Labs ECO-AFL/FL [mg/m^3]
# name 7 = ph: pH
# name 8 = orp: Oxidation Reduction Potential [mV]
# name 9 = par/sat/log: PAR/Logarithmic, Satlantic
# name 10 = turbWETntu0: Turbidity, WET Labs ECO [NTU]
# name 11 = prdM: Pressure, Strain Gauge [db]
# name 12 = prdE: Pressure, Strain Gauge [psi]
# name 13 = tv290C: Temperature [ITS-90, deg C]
# name 14 = flag:  0.000e+00
# span 0 =     -0.518,      9.768       
# span 1 =     -0.088,      0.226       
# span 2 =     0.0489,     9.7977       
# span 3 =      0.461,    116.876       
# span 4 =      1.592,    315.886       
# span 5 =   1.631462, 237.905131       
# span 6 =    -0.3763,    25.8855       
# span 7 =      6.177,      8.423       
# span 8 = -1240.7455,   255.6133       
# span 9 = 1.2537e-01, 1.4900e+03       
# span 10 =    -0.4941,    13.6893      
# span 11 =     -0.508,      9.580      
# span 12 =     -0.737,     13.894      
# span 13 =    12.1317,    26.2915      
# span 14 = 0.0000e+00, 0.0000e+00      
# interval = seconds: 0.25
# start_time = Sep 12 2018 20:26:48 [Instrument's time stamp, header]
# bad_flag = -9.990e-29
# <Sensors count="9" >
#   <sensor Channel="1" >
#     <!-- Count, Temperature -->
#     <TemperatureSensor SensorID="58" >
#       <SerialNumber>7809</SerialNumber>
#       <CalibrationDate>09-Mar-18</CalibrationDate>
#       <A0>1.21093245e-003</A0>
#       <A1>2.84356597e-004</A1>
#       <A2>-1.94507398e-006</A2>
#       <A3>2.12806664e-007</A3>
#       <Slope>1.00000000</Slope>
#       <Offset>0.0000</Offset>
#     </TemperatureSensor>
#   </sensor>
#   <sensor Channel="2" >
#     <!-- Frequency 0, Conductivity -->
#     <ConductivitySensor SensorID="3" >
#       <SerialNumber>7809</SerialNumber>
#       <CalibrationDate>09-Mar-18</CalibrationDate>
#       <UseG_J>1</UseG_J>
#       <!-- Cell const and series R are applicable only for wide range sensors. -->
#       <SeriesR>0.0000</SeriesR>
#       <CellConst>2000.0000</CellConst>
#       <ConductivityType>0</ConductivityType>
#       <Coefficients equation="0" >
#         <A>0.00000000e+000</A>
#         <B>0.00000000e+000</B>
#         <C>0.00000000e+000</C>
#         <D>0.00000000e+000</D>
#         <M>0.0</M>
#         <CPcor>-9.57000000e-008</CPcor>
#       </Coefficients>
#       <Coefficients equation="1" >
#         <G>-1.00672082e+000</G>
#         <H>1.26906489e-001</H>
#         <I>-1.40584351e-004</I>
#         <J>2.47837121e-005</J>
#         <CPcor>-9.57000000e-008</CPcor>
#         <CTcor>3.2500e-006</CTcor>
#         <!-- WBOTC not applicable unless ConductivityType = 1. -->
#         <WBOTC>0.00000000e+000</WBOTC>
#       </Coefficients>
#       <Slope>1.00000000</Slope>
#       <Offset>0.00000</Offset>
#     </ConductivitySensor>
#   </sensor>
#   <sensor Channel="3" >
#     <!-- Count, Pressure, Strain Gauge -->
#     <PressureSensor SensorID="46" >
#       <SerialNumber>7809</SerialNumber>
#       <CalibrationDate>07-Mar-18</CalibrationDate>
#       <PA0>-4.08176359e-002</PA0>
#       <PA1>4.85188419e-004</PA1>
#       <PA2>-3.51168169e-012</PA2>
#       <PTEMPA0>-5.37806900e+001</PTEMPA0>
#       <PTEMPA1>5.36620721e+001</PTEMPA1>
#       <PTEMPA2>4.87214332e-002</PTEMPA2>
#       <PTCA0>5.25213435e+005</PTCA0>
#       <PTCA1>1.79532409e+000</PTCA1>
#       <PTCA2>-2.84353509e-001</PTCA2>
#       <PTCB0>2.51668750e+001</PTCB0>
#       <PTCB1>3.75000000e-004</PTCB1>
#       <PTCB2>0.00000000e+000</PTCB2>
#       <Offset>0.000000</Offset>
#     </PressureSensor>
#   </sensor>
#   <sensor Channel="4" >
#     <!-- A/D voltage 0, pH -->
#     <pH_Sensor SensorID="43" >
#       <SerialNumber>0363</SerialNumber>
#       <CalibrationDate>16-Mar-18</CalibrationDate>
#       <Slope>4.6194</Slope>
#       <Offset>2.5947</Offset>
#     </pH_Sensor>
#   </sensor>
#   <sensor Channel="5" >
#     <!-- A/D voltage 1, Oxidation Reduction Potential -->
#     <OxidationReductionPotentialSensor SensorID="41" >
#       <SerialNumber>0363</SerialNumber>
#       <CalibrationDate>16-Mar-18</CalibrationDate>
#       <B>2.499480</B>
#       <M>-0.496195</M>
#       <Offset>0.0</Offset>
#     </OxidationReductionPotentialSensor>
#   </sensor>
#   <sensor Channel="6" >
#     <!-- A/D voltage 2, Oxygen, SBE 43 -->
#     <OxygenSensor SensorID="38" >
#       <SerialNumber>0434</SerialNumber>
#       <CalibrationDate>13-Mar-18</CalibrationDate>
#       <Use2007Equation>1</Use2007Equation>
#       <CalibrationCoefficients equation="0" >
#         <!-- Coefficients for Owens-Millard equation. -->
#         <Boc>0.0000</Boc>
#         <Soc>0.0000e+000</Soc>
#         <offset>0.0000</offset>
#         <Pcor>0.00e+000</Pcor>
#         <Tcor>0.0000</Tcor>
#         <Tau>0.0</Tau>
#       </CalibrationCoefficients>
#       <CalibrationCoefficients equation="1" >
#         <!-- Coefficients for Sea-Bird equation - SBE calibration in 2007 and later. -->
#         <Soc>4.5718e-001</Soc>
#         <offset>-0.6113</offset>
#         <A>-4.0649e-003</A>
#         <B> 2.0945e-004</B>
#         <C>-3.3182e-006</C>
#         <D0> 2.5826e+000</D0>
#         <D1> 1.92634e-004</D1>
#         <D2>-4.64803e-002</D2>
#         <E> 3.6000e-002</E>
#         <Tau20> 1.2200</Tau20>
#         <H1>-3.3000e-002</H1>
#         <H2> 5.0000e+003</H2>
#         <H3> 1.4500e+003</H3>
#       </CalibrationCoefficients>
#     </OxygenSensor>
#   </sensor>
#   <sensor Channel="7" >
#     <!-- A/D voltage 3, PAR/Logarithmic, Satlantic -->
#     <PARLog_SatlanticSensor SensorID="76" >
#       <SerialNumber>1122</SerialNumber>
#       <CalibrationDate>22-Jun-2017</CalibrationDate>
#       <a0>9.6090e-001</a0>
#       <a1>8.0780e-001</a1>
#       <Im>1.3589e+000</Im>
#       <Multiplier>1.0000e+000</Multiplier>
#     </PARLog_SatlanticSensor>
#   </sensor>
#   <sensor Channel="8" >
#     <!-- A/D voltage 4, Fluorometer, WET Labs ECO-AFL/FL -->
#     <FluoroWetlabECO_AFL_FL_Sensor SensorID="20" >
#       <SerialNumber>FLNTURT-2496</SerialNumber>
#       <CalibrationDate>25-Jan-2017</CalibrationDate>
#       <ScaleFactor>5.30000000e+001</ScaleFactor>
#       <!-- Dark output -->
#       <Vblank>0.0560</Vblank>
#     </FluoroWetlabECO_AFL_FL_Sensor>
#   </sensor>
#   <sensor Channel="9" >
#     <!-- A/D voltage 5, Turbidity Meter, WET Labs, ECO-NTU -->
#     <TurbidityMeter SensorID="67" >
#       <SerialNumber>FLNTURT-2496</SerialNumber>
#       <CalibrationDate>25-Jan-2017</CalibrationDate>
#       <ScaleFactor>176.000000</ScaleFactor>
#       <!-- Dark output -->
#       <DarkVoltage>0.072000</DarkVoltage>
#     </TurbidityMeter>
#   </sensor>
# </Sensors>
# datcnv_date = Sep 12 2018 18:49:18, 7.26.7.114 [datcnv_vars = 14]
# datcnv_in = C:\DATA\091218_fcr50.hex C:\DATA\SBE19plusV2_7809.xmlcon
# datcnv_skipover = 0
# datcnv_ox_hysteresis_correction = yes
# datcnv_ox_tau_correction = yes
# filter_date = Sep 12 2018 18:49:36, 7.26.7.114
# filter_in = C:\DATA\091218_fcr50.cnv
# filter_low_pass_tc_A = 0.030
# filter_low_pass_tc_B = 0.150
# filter_low_pass_A_vars = prdM prdE tv290C
# filter_low_pass_B_vars = depFM dz/dtM sbeox0Mg/L sbeox0PS specc c0uS/cm flECO-AFL ph orp par/sat/log turbWETntu0
# alignctd_date = Sep 12 2018 18:49:53, 7.26.7.114
# alignctd_in = C:\DATA\091218_fcr50.cnv
# alignctd_adv = dz/dtM 1.000, sbeox0Mg/L 1.000, sbeox0PS 1.000, specc 1.000, c0uS/cm 1.000, flECO-AFL 1.000, ph 1.000, orp 1.000, turbWETntu0 1.000                                                                                 
# file_type = ascii
*END*
     -0.518 1.9105e-15     7.7502     96.021      1.700   1.742784    -0.1607      6.385 -1240.7455 7.4703e+02    -0.1958     -0.508     -0.736    26.2915 0.0000e+00
     -0.518 2.1015e-14     7.7520     96.036      1.672   1.714321    -0.1772      6.390 -1240.7455 6.0527e+02    -0.2107     -0.508     -0.737    26.2895 0.0000e+00
     -0.518 2.3116e-13     7.7532     96.040      1.627   1.668401    -0.1879      6.396 -1240.7455 5.4728e+02    -0.2237     -0.508     -0.737    26.2878 0.0000e+00
     -0.518 2.5428e-12     7.7537     96.025      1.592   1.631462    -0.2161      6.407 -1240.7455 7.0264e+02    -0.2616     -0.507     -0.736    26.2859 0.0000e+00
     -0.518 2.7970e-11     7.7562     96.021      1.608   1.648192    -0.2700      6.412 -1240.7455 1.0176e+03    -0.2724     -0.508     -0.737    26.2828 0.0000e+00
     -0.518 3.0767e-10     7.7606     96.040      1.702   1.743851    -0.2968      6.401 -1240.7455 1.0775e+03    -0.2625     -0.508     -0.737    26.2788 0.0000e+00
     -0.518 3.3844e-09     7.7644     96.059      1.793   1.836840    -0.2927      6.385 -1240.7455 9.6571e+02    -0.2340     -0.508     -0.736    26.2752 0.0000e+00
     -0.518 3.7228e-08     7.7669     96.070      1.840   1.884714    -0.3123      6.373 -1240.7455 1.1305e+03    -0.2628     -0.508     -0.736    26.2639 0.0000e+00
     -0.518 4.0951e-07     7.7684     96.077      1.835   1.878781    -0.3595      6.370 -1240.7455 1.3172e+03    -0.3974     -0.508     -0.737    26.2405 0.0000e+00
     -0.518      0.000     7.7698     96.089      1.786   1.828524    -0.3763      6.376 -1240.7455 1.3674e+03    -0.4888     -0.508     -0.737    26.2176 0.0000e+00
     -0.518      0.000     7.7708     96.097      1.743   1.784371    -0.3589      6.384 -1240.7455 1.3940e+03    -0.4827     -0.507     -0.736    26.2018 0.0000e+00
     -0.518      0.001     7.7707     96.089      1.747   1.788841    -0.3051      6.391 -1240.7453 1.1318e+03    -0.4756     -0.508     -0.736    26.1904 0.0000e+00
     -0.518      0.001     7.7710     96.084      1.777   1.819150    -0.2219      6.394 -1240.7438 6.2739e+02    -0.4941     -0.508     -0.737    26.1844 0.0000e+00
     -0.517      0.001     7.7711     96.079      1.792   1.833764    -0.1798      6.395 -1240.7264 5.3223e+02    -0.4934     -0.507     -0.735    26.1819 0.0000e+00
     -0.517      0.000     7.7700     96.064      1.797   1.838705    -0.1733      6.397 -1240.5353 8.9704e+02    -0.4674     -0.507     -0.735    26.1796 0.0000e+00
     -0.517      0.000     7.7695     96.059      1.836   1.878890    -0.1161      6.399 -1238.4338 1.1863e+03    -0.0569     -0.507     -0.735    26.1752 0.0000e+00
     -0.517      0.003     7.7714     96.062      2.146   2.192809    -0.0024      6.411 -1215.3165 1.2994e+03     0.7461     -0.506     -0.734    26.1719 0.0000e+00
     -0.517      0.011     7.7849     96.067      5.538   5.634266     0.0705      6.579  -961.0261 1.3648e+03     1.2155     -0.507     -0.736    26.1641 0.0000e+00
     -0.517      0.029     7.8192     96.083     15.565  15.768303     0.0853      6.972  -385.3650 1.4015e+03     1.4385     -0.507     -0.734    26.1672 0.0000e+00
     -0.516      0.058     7.8634     96.103     28.460  28.716644     0.0856      7.391    92.6902 1.4098e+03     3.5331     -0.508     -0.736    26.1638 0.0000e+00
     -0.507      0.098     7.9018     96.112     36.387  36.571407     0.0826      7.722   232.4325 1.3976e+03     7.4059     -0.505     -0.732    26.1795 0.0000e+00
     -0.481      0.142     7.9316     96.108     38.109  38.159769     0.0858      7.955   232.4551 1.3796e+03     9.5070     -0.479     -0.695    26.1329 0.0000e+00
     -0.436      0.182     7.9584     96.115     37.651  37.568243     0.0969      8.079   225.1203 1.3729e+03     9.6494     -0.435     -0.631    25.8523 0.0000e+00
     -0.372      0.212     7.9877     96.188     37.370  37.169726     0.1434      8.131   222.2152 1.3841e+03     9.4637     -0.370     -0.537    25.5070 0.0000e+00
     -0.297      0.226     8.0200     96.355     37.320  37.025775     0.6469      8.149   225.3783 1.4091e+03     7.5053     -0.287     -0.417    25.2478 0.0000e+00
     -0.227      0.221     8.0559     96.622     37.269  36.907554     1.5809      8.158   229.3798 1.4348e+03     3.9159     -0.218     -0.315    25.0523 0.0000e+00
     -0.168      0.204     8.0959     96.981     37.232  36.820165     2.0998      8.160   227.5781 1.4569e+03     1.9535     -0.162     -0.235    24.8803 0.0000e+00
     -0.121      0.182     8.1367     97.384     37.242  36.794920     2.1504      8.155   222.9529 1.4769e+03     1.7838     -0.114     -0.165    24.7099 0.0000e+00
     -0.085      0.160     8.1749     97.783     37.265  36.792845     2.1652      8.147   222.3270 1.4885e+03     1.8030     -0.080     -0.117    24.5876 0.0000e+00
     -0.056      0.144     8.2083     98.140     37.348  36.858568     2.1962      8.142   224.7428 1.4900e+03     1.8493     -0.056     -0.081    24.5021 0.0000e+00
     -0.024      0.131     8.2350     98.428     37.587  37.081342     2.2124      8.131   226.5225 1.4847e+03     1.8867     -0.026     -0.038    24.4342 0.0000e+00
      0.012      0.117     8.2540     98.627     37.912  37.389993     2.2147      8.110   227.2391 1.4672e+03     1.9494      0.011      0.016    24.3886 0.0000e+00
      0.048      0.102     8.2640     98.730     38.008  37.477608     2.2332      8.099   226.8685 1.3103e+03     1.9979      0.050      0.073    24.3584 0.0000e+00
      0.078      0.084     8.2616     98.698     37.780  37.251301     2.2621      8.104   224.7088 1.0449e+03     1.9842      0.080      0.116    24.3374 0.0000e+00
      0.097      0.064     8.2141     98.134     37.463  36.940711     2.2784      8.116   221.6896 9.1606e+02     1.9671      0.099      0.144    24.3203 0.0000e+00
      0.106      0.043     8.0989     96.755     37.228  36.708036     2.2843      8.130   219.2731 8.6822e+02     1.9435      0.106      0.154    24.3047 0.0000e+00
      0.109      0.025     7.9669     95.165     37.122  36.597917     2.2872      8.145   218.7215 9.4257e+02     1.8824      0.107      0.154    24.2946 0.0000e+00
      0.110      0.012     7.8769     94.069     37.095  36.562143     2.2857      8.160   220.9567 1.0870e+03     1.8084      0.108      0.156    24.2932 0.0000e+00
      0.111      0.005     7.8386     93.591     37.070  36.529593     2.2846      8.171   224.4448 9.9641e+02     1.7501      0.108      0.157    24.2976 0.0000e+00
      0.111      0.001     7.8316     93.490     37.070  36.521960     2.2824      8.180   227.1685 9.1561e+02     1.7262      0.109      0.158    24.2987 0.0000e+00
      0.111      0.000     7.8327     93.493     37.086  36.533370     2.3326      8.186   228.4212 1.1439e+03     1.7637      0.109      0.159    24.2905 0.0000e+00
      0.111      0.000     7.8389     93.565     37.094  36.540492     2.4324      8.191   227.6315 1.3051e+03     1.8687      0.110      0.160    24.2762 0.0000e+00
      0.110      0.001     7.8565     93.781     37.160  36.608069     2.4783      8.195   225.9666 1.1041e+03     1.9579      0.106      0.154    24.2636 0.0000e+00
      0.109      0.002     7.8698     93.953     37.264  36.715186     2.4733      8.197   225.4123 9.1528e+02     1.9576      0.105      0.153    24.2538 0.0000e+00
      0.110      0.003     7.8426     93.646     37.297  36.755720     2.4647      8.200   225.2308 8.8304e+02     1.9261      0.107      0.156    24.2473 0.0000e+00
      0.111      0.004     7.7609     92.683     37.251  36.717027     2.4661      8.206   223.3426 8.5890e+02     1.8824      0.108      0.156    24.2467 0.0000e+00
      0.114      0.004     7.6459     91.315     37.160  36.628503     2.4712      8.212   220.6497 8.4085e+02     1.7954      0.111      0.162    24.2496 0.0000e+00
      0.116      0.004     7.5256     89.878     37.105  36.574740     2.4624      8.214   219.4303 7.8368e+02     1.7287      0.115      0.168    24.2565 0.0000e+00
      0.116      0.003     7.4168     88.583     37.103  36.575185     2.4608      8.210   219.0953 7.1555e+02     1.7171      0.116      0.166    24.2699 0.0000e+00
      0.116      0.001     7.3262     87.515     37.092  36.570366     2.4523      8.204   219.0951 7.3923e+02     1.7157      0.113      0.164    24.2794 0.0000e+00
      0.116     -0.001     7.2513     86.643     37.092  36.580007     2.4232      8.200   219.5141 7.5551e+02     1.7116      0.113      0.166    24.2801 0.0000e+00
      0.116     -0.001     7.1886     85.920     37.129  36.628244     2.4125      8.200   220.0313 6.5606e+02     1.7279      0.115      0.167    24.2782 0.0000e+00
      0.115     -0.001     7.1359     85.310     37.201  36.708935     2.4140      8.200   220.6158 5.9068e+02     1.7289      0.112      0.163    24.2798 0.0000e+00
      0.113      0.000     7.0888     84.763     37.279  36.793353     2.4240      8.205   220.9032 6.3807e+02     1.6946      0.111      0.161    24.2887 0.0000e+00
      0.113      0.000     7.0542     84.364     37.366  36.886642     2.4590      8.211   221.1832 6.7419e+02     1.6796      0.111      0.161    24.3043 0.0000e+00
      0.114      0.000     7.0533     84.368     37.484  37.011061     2.4885      8.219   221.9365 6.6537e+02     1.7004      0.112      0.163    24.3217 0.0000e+00
      0.116      0.001     7.1008     84.950     37.623  37.154236     2.4961      8.225   222.4395 6.7249e+02     1.7318      0.113      0.165    24.3343 0.0000e+00
      0.116      0.001     7.1925     86.060     37.748  37.283718     2.5044      8.230   222.4465 6.5490e+02     1.7540      0.113      0.165    24.3428 0.0000e+00
      0.116      0.000     7.3145     87.535     37.828  37.369613     2.5249      8.234   222.1944 6.1086e+02     1.7547      0.114      0.165    24.3531 0.0000e+00
      0.115     -0.001     7.4564     89.254     37.881  37.430468     2.5421      8.237   221.7134 6.2747e+02     1.7409      0.113      0.165    24.3634 0.0000e+00
      0.114     -0.001     7.6056     91.061     37.952  37.511309     2.5474      8.241   221.4485 7.0405e+02     1.7393      0.112      0.163    24.3717 0.0000e+00
      0.114      0.000     7.7434     92.732     38.082  37.648264     2.5611      8.243   221.5730 7.1203e+02     1.7962      0.111      0.161    24.3779 0.0000e+00
      0.114      0.001     7.8552     94.090     38.243  37.815840     2.5876      8.245   222.0147 6.2543e+02     1.8795      0.112      0.162    24.3864 0.0000e+00
      0.114      0.002     7.9350     95.060     38.372  37.949255     2.6019      8.248   222.4012 5.7590e+02     1.9234      0.112      0.162    24.4002 0.0000e+00
      0.115      0.002     7.9832     95.649     38.472  38.054339     2.6054      8.252   222.3739 5.6818e+02     1.9603      0.113      0.164    24.4138 0.0000e+00
      0.116      0.002     8.0034     95.897     38.549  38.133473     2.6119      8.254   222.1145 5.4729e+02     1.9595      0.114      0.166    24.4256 0.0000e+00
      0.117      0.002     8.0017     95.876     38.560  38.143707     2.6432      8.256   221.7603 5.4118e+02     1.8525      0.115      0.167    24.4359 0.0000e+00
      0.117      0.002     7.9827     95.641     38.533  38.114547     2.6990      8.257   221.2743 5.5784e+02     1.7650      0.116      0.168    24.4449 0.0000e+00
