* Sea-Bird SBE19plus  Data File:
* FileName = C:\DATA\20180917_fcr_0004.hex
* Software version 2.6.3.104 SB_Terminal.dll
* Temperature SN = 7809
* Conductivity SN = 7809
* System UpLoad Time = Sep 17 2018 17:52:11
* <ApplicationData>
* <Seaterm232>
* <SoftwareVersion>2.6.3.104</SoftwareVersion>
* <BuildDate>30-Jun-2017</BuildDate>
* </Seaterm232>
* </ApplicationData>
* cast   4 17 Sep 2018 16:19:45 samples 1688 to 2481, avg = 1, stop = mag switch
# nquan = 15
# nvalues = 673                         
# units = specified
# name 0 = depFM: Depth [fresh water, m]
# name 1 = dz/dtM: Descent Rate [m/s]
# name 2 = sbeox0Mg/L: Oxygen, SBE 43 [mg/l]
# name 3 = sbeox0PS: Oxygen, SBE 43 [% saturation]
# name 4 = specc: Specific Conductance [uS/cm]
# name 5 = c0uS/cm: Conductivity [uS/cm]
# name 6 = flECO-AFL: Fluorescence, WET Labs ECO-AFL/FL [mg/m^3]
# name 7 = ph: pH
# name 8 = orp: Oxidation Reduction Potential [mV]
# name 9 = par/sat/log: PAR/Logarithmic, Satlantic
# name 10 = turbWETntu0: Turbidity, WET Labs ECO [NTU]
# name 11 = prdM: Pressure, Strain Gauge [db]
# name 12 = prdE: Pressure, Strain Gauge [psi]
# name 13 = tv290C: Temperature [ITS-90, deg C]
# name 14 = flag:  0.000e+00
# span 0 =     -0.599,      7.581       
# span 1 =     -0.168,      0.272       
# span 2 =    -0.0263,     8.3437       
# span 3 =     -0.293,     97.155       
# span 4 =      2.744,    109.566       
# span 5 =   2.625022,  84.149755       
# span 6 =    -0.1755,    13.0606       
# span 7 =      6.277,      7.826       
# span 8 =    64.2990,   392.5628       
# span 9 = 1.2546e-01, 7.0311e+02       
# span 10 =    -0.2709,    18.7824      
# span 11 =     -0.587,      7.435      
# span 12 =     -0.852,     10.783      
# span 13 =    13.3754,    22.9601      
# span 14 = 0.0000e+00, 0.0000e+00      
# interval = seconds: 0.25
# start_time = Sep 17 2018 16:19:45 [Instrument's time stamp, header]
# bad_flag = -9.990e-29
# <Sensors count="9" >
#   <sensor Channel="1" >
#     <!-- Count, Temperature -->
#     <TemperatureSensor SensorID="58" >
#       <SerialNumber>7809</SerialNumber>
#       <CalibrationDate>09-Mar-18</CalibrationDate>
#       <A0>1.21093245e-003</A0>
#       <A1>2.84356597e-004</A1>
#       <A2>-1.94507398e-006</A2>
#       <A3>2.12806664e-007</A3>
#       <Slope>1.00000000</Slope>
#       <Offset>0.0000</Offset>
#     </TemperatureSensor>
#   </sensor>
#   <sensor Channel="2" >
#     <!-- Frequency 0, Conductivity -->
#     <ConductivitySensor SensorID="3" >
#       <SerialNumber>7809</SerialNumber>
#       <CalibrationDate>09-Mar-18</CalibrationDate>
#       <UseG_J>1</UseG_J>
#       <!-- Cell const and series R are applicable only for wide range sensors. -->
#       <SeriesR>0.0000</SeriesR>
#       <CellConst>2000.0000</CellConst>
#       <ConductivityType>0</ConductivityType>
#       <Coefficients equation="0" >
#         <A>0.00000000e+000</A>
#         <B>0.00000000e+000</B>
#         <C>0.00000000e+000</C>
#         <D>0.00000000e+000</D>
#         <M>0.0</M>
#         <CPcor>-9.57000000e-008</CPcor>
#       </Coefficients>
#       <Coefficients equation="1" >
#         <G>-1.00672082e+000</G>
#         <H>1.26906489e-001</H>
#         <I>-1.40584351e-004</I>
#         <J>2.47837121e-005</J>
#         <CPcor>-9.57000000e-008</CPcor>
#         <CTcor>3.2500e-006</CTcor>
#         <!-- WBOTC not applicable unless ConductivityType = 1. -->
#         <WBOTC>0.00000000e+000</WBOTC>
#       </Coefficients>
#       <Slope>1.00000000</Slope>
#       <Offset>0.00000</Offset>
#     </ConductivitySensor>
#   </sensor>
#   <sensor Channel="3" >
#     <!-- Count, Pressure, Strain Gauge -->
#     <PressureSensor SensorID="46" >
#       <SerialNumber>7809</SerialNumber>
#       <CalibrationDate>07-Mar-18</CalibrationDate>
#       <PA0>-4.08176359e-002</PA0>
#       <PA1>4.85188419e-004</PA1>
#       <PA2>-3.51168169e-012</PA2>
#       <PTEMPA0>-5.37806900e+001</PTEMPA0>
#       <PTEMPA1>5.36620721e+001</PTEMPA1>
#       <PTEMPA2>4.87214332e-002</PTEMPA2>
#       <PTCA0>5.25213435e+005</PTCA0>
#       <PTCA1>1.79532409e+000</PTCA1>
#       <PTCA2>-2.84353509e-001</PTCA2>
#       <PTCB0>2.51668750e+001</PTCB0>
#       <PTCB1>3.75000000e-004</PTCB1>
#       <PTCB2>0.00000000e+000</PTCB2>
#       <Offset>0.000000</Offset>
#     </PressureSensor>
#   </sensor>
#   <sensor Channel="4" >
#     <!-- A/D voltage 0, pH -->
#     <pH_Sensor SensorID="43" >
#       <SerialNumber>0363</SerialNumber>
#       <CalibrationDate>16-Mar-18</CalibrationDate>
#       <Slope>4.6194</Slope>
#       <Offset>2.5947</Offset>
#     </pH_Sensor>
#   </sensor>
#   <sensor Channel="5" >
#     <!-- A/D voltage 1, Oxidation Reduction Potential -->
#     <OxidationReductionPotentialSensor SensorID="41" >
#       <SerialNumber>0363</SerialNumber>
#       <CalibrationDate>16-Mar-18</CalibrationDate>
#       <B>2.499480</B>
#       <M>-0.496195</M>
#       <Offset>0.0</Offset>
#     </OxidationReductionPotentialSensor>
#   </sensor>
#   <sensor Channel="6" >
#     <!-- A/D voltage 2, Oxygen, SBE 43 -->
#     <OxygenSensor SensorID="38" >
#       <SerialNumber>0434</SerialNumber>
#       <CalibrationDate>13-Mar-18</CalibrationDate>
#       <Use2007Equation>1</Use2007Equation>
#       <CalibrationCoefficients equation="0" >
#         <!-- Coefficients for Owens-Millard equation. -->
#         <Boc>0.0000</Boc>
#         <Soc>0.0000e+000</Soc>
#         <offset>0.0000</offset>
#         <Pcor>0.00e+000</Pcor>
#         <Tcor>0.0000</Tcor>
#         <Tau>0.0</Tau>
#       </CalibrationCoefficients>
#       <CalibrationCoefficients equation="1" >
#         <!-- Coefficients for Sea-Bird equation - SBE calibration in 2007 and later. -->
#         <Soc>4.5718e-001</Soc>
#         <offset>-0.6113</offset>
#         <A>-4.0649e-003</A>
#         <B> 2.0945e-004</B>
#         <C>-3.3182e-006</C>
#         <D0> 2.5826e+000</D0>
#         <D1> 1.92634e-004</D1>
#         <D2>-4.64803e-002</D2>
#         <E> 3.6000e-002</E>
#         <Tau20> 1.2200</Tau20>
#         <H1>-3.3000e-002</H1>
#         <H2> 5.0000e+003</H2>
#         <H3> 1.4500e+003</H3>
#       </CalibrationCoefficients>
#     </OxygenSensor>
#   </sensor>
#   <sensor Channel="7" >
#     <!-- A/D voltage 3, PAR/Logarithmic, Satlantic -->
#     <PARLog_SatlanticSensor SensorID="76" >
#       <SerialNumber>1122</SerialNumber>
#       <CalibrationDate>22-Jun-2017</CalibrationDate>
#       <a0>9.6090e-001</a0>
#       <a1>8.0780e-001</a1>
#       <Im>1.3589e+000</Im>
#       <Multiplier>1.0000e+000</Multiplier>
#     </PARLog_SatlanticSensor>
#   </sensor>
#   <sensor Channel="8" >
#     <!-- A/D voltage 4, Fluorometer, WET Labs ECO-AFL/FL -->
#     <FluoroWetlabECO_AFL_FL_Sensor SensorID="20" >
#       <SerialNumber>FLNTURT-2496</SerialNumber>
#       <CalibrationDate>25-Jan-2017</CalibrationDate>
#       <ScaleFactor>5.30000000e+001</ScaleFactor>
#       <!-- Dark output -->
#       <Vblank>0.0560</Vblank>
#     </FluoroWetlabECO_AFL_FL_Sensor>
#   </sensor>
#   <sensor Channel="9" >
#     <!-- A/D voltage 5, Turbidity Meter, WET Labs, ECO-NTU -->
#     <TurbidityMeter SensorID="67" >
#       <SerialNumber>FLNTURT-2496</SerialNumber>
#       <CalibrationDate>25-Jan-2017</CalibrationDate>
#       <ScaleFactor>176.000000</ScaleFactor>
#       <!-- Dark output -->
#       <DarkVoltage>0.072000</DarkVoltage>
#     </TurbidityMeter>
#   </sensor>
# </Sensors>
# datcnv_date = Sep 17 2018 17:58:17, 7.26.7.114 [datcnv_vars = 14]
# datcnv_in = C:\DATA\20180917_fcr45.hex C:\DATA\SBE19plusV2_7809.xmlcon
# datcnv_skipover = 0
# datcnv_ox_hysteresis_correction = yes
# datcnv_ox_tau_correction = yes
# filter_date = Sep 17 2018 17:59:16, 7.26.7.114
# filter_in = C:\DATA\20180917_fcr45.cnv
# filter_low_pass_tc_A = 0.030
# filter_low_pass_tc_B = 0.150
# filter_low_pass_A_vars = prdM prdE tv290C
# filter_low_pass_B_vars = depFM dz/dtM sbeox0Mg/L sbeox0PS specc c0uS/cm flECO-AFL ph orp par/sat/log turbWETntu0
# alignctd_date = Sep 17 2018 17:59:41, 7.26.7.114
# alignctd_in = C:\DATA\20180917_fcr45.cnv
# alignctd_adv = dz/dtM 1.000, sbeox0Mg/L 1.000, sbeox0PS 1.000, specc 1.000, c0uS/cm 1.000, flECO-AFL 1.000, ph 1.000, orp 1.000, turbWETntu0 1.000                                                                                 
# file_type = ascii
*END*
     -0.598 9.8031e-13     8.0505     93.542      5.996   5.736051    -0.1755      6.759   251.3946 2.2872e+02    -0.0152     -0.586     -0.850    22.8226 0.0000e+00
     -0.598 1.0783e-11     8.0505     93.542      5.278   5.049092    -0.1748      6.735   280.7658 2.0377e+02     0.0375     -0.586     -0.850    22.8231 0.0000e+00
     -0.598 1.1862e-10     8.0499     93.534      4.609   4.409026    -0.1737      6.699   328.6349 1.6955e+02     0.0286     -0.586     -0.850    22.8232 0.0000e+00
     -0.598 1.3048e-09     8.0479     93.511      3.940   3.768682    -0.1712      6.700   348.4426 1.4851e+02     0.0300     -0.587     -0.851    22.8230 0.0000e+00
     -0.598 1.4353e-08     8.0465     93.496      3.417   3.268517    -0.1717      6.733   339.5768 1.5576e+02     0.0232     -0.587     -0.851    22.8230 0.0000e+00
     -0.598 1.5788e-07     8.0453     93.482      2.994   2.864460    -0.1714      6.762   334.5806 1.8958e+02    -0.0218     -0.587     -0.851    22.8230 0.0000e+00
     -0.598      0.000     8.0438     93.467      2.744   2.625022    -0.1678      6.781   332.5164 2.3401e+02    -0.0263     -0.587     -0.851    22.8230 0.0000e+00
     -0.598      0.000     8.0443     93.472      2.843   2.719978    -0.1651      6.795   326.7502 2.7817e+02    -0.0618     -0.587     -0.851    22.8232 0.0000e+00
     -0.598      0.000     8.0455     93.487      3.598   3.441789    -0.1659      6.806   322.5084 3.2390e+02    -0.1768     -0.587     -0.851    22.8237 0.0000e+00
     -0.598      0.002     8.0470     93.505      4.972   4.756605    -0.1672      6.816   323.3015 3.7405e+02    -0.2572     -0.587     -0.851    22.8239 0.0000e+00
     -0.599      0.010     8.0486     93.533      9.051   8.660051    -0.1725      6.852   368.5183 4.2493e+02    -0.2709     -0.587     -0.852    22.8242 0.0000e+00
     -0.599      0.030     8.0485     93.559     18.836  18.029059    -0.1748      6.994   392.5628 4.7080e+02    -0.2500     -0.587     -0.852    22.8246 0.0000e+00
     -0.598      0.062     8.0473     93.589     29.689  28.429594    -0.1585      7.278   306.0023 5.1293e+02    -0.2186     -0.587     -0.852    22.8247 0.0000e+00
     -0.591      0.103     8.0468     93.626     35.019  33.546559    -0.1404      7.586   233.7673 5.4974e+02    -0.1662     -0.587     -0.851    22.8248 0.0000e+00
     -0.565      0.148     8.0471     93.663     36.133  34.626293    -0.0567      7.773   220.9118 5.7806e+02     0.2623     -0.563     -0.818    22.8249 0.0000e+00
     -0.514      0.192     8.0481     93.702     36.318  34.815448     0.9449      7.826   206.1475 6.0233e+02     5.0845     -0.510     -0.740    22.8393 0.0000e+00
     -0.446      0.231     8.0535     93.786     36.378  34.880833     2.7887      7.811   196.7877 6.2311e+02    13.9479     -0.439     -0.636    22.8694 0.0000e+00
     -0.371      0.260     8.0686     93.975     36.402  34.908720     3.7921      7.775   194.6429 6.3168e+02    18.7432     -0.362     -0.525    22.8931 0.0000e+00
     -0.298      0.272     8.0946     94.283     36.389  34.898555     3.9145      7.736   194.0683 6.2155e+02    18.7824     -0.292     -0.424    22.9106 0.0000e+00
     -0.227      0.267     8.1308     94.704     36.375  34.884955     4.3424      7.705   194.1419 5.8865e+02    14.5751     -0.223     -0.324    22.9267 0.0000e+00
     -0.154      0.247     8.1750     95.214     36.362  34.871327     5.1154      7.681   198.4574 5.2920e+02     6.8141     -0.150     -0.219    22.9384 0.0000e+00
     -0.085      0.215     8.2227     95.764     36.354  34.860821     5.5317      7.665   202.7117 4.4021e+02     2.5818     -0.078     -0.114    22.9458 0.0000e+00
     -0.027      0.175     8.2684     96.289     36.381  34.884960     5.5612      7.651   199.2052 3.3990e+02     2.1918     -0.021     -0.029    22.9482 0.0000e+00
      0.013      0.131     8.3082     96.748     36.409  34.909109     5.5557      7.638   195.1218 2.7859e+02     2.1286      0.018      0.026    22.9476 0.0000e+00
      0.037      0.087     8.3370     97.080     36.400  34.898716     5.5566      7.627   199.3718 2.7208e+02     2.0619      0.042      0.061    22.9447 0.0000e+00
      0.046      0.051     8.3437     97.155     36.388  34.886336     5.5725      7.617   208.6042 2.8405e+02     1.9957      0.049      0.072    22.9405 0.0000e+00
      0.045      0.027     8.3030     96.681     36.388  34.886461     5.5825      7.609   209.6107 2.9054e+02     1.9385      0.045      0.065    22.9367 0.0000e+00
      0.040      0.014     8.1846     95.302     36.403  34.900228     5.5764      7.600   201.3896 2.9458e+02     1.8894      0.036      0.054    22.9343 0.0000e+00
      0.040      0.009     7.9791     92.911     36.429  34.925752     5.5446      7.591   196.0166 2.9532e+02     1.8906      0.037      0.053    22.9324 0.0000e+00
      0.045      0.009     7.7093     89.770     36.444  34.940995     5.4826      7.584   195.1508 2.8746e+02     1.9219      0.044      0.064    22.9312 0.0000e+00
      0.052      0.010     7.4139     86.331     36.461  34.957491     5.4513      7.577   195.9121 2.7885e+02     1.9630      0.052      0.076    22.9310 0.0000e+00
      0.057      0.011     7.1240     82.956     36.503  34.998165     5.4611      7.571   196.8751 2.7507e+02     1.9909      0.057      0.082    22.9311 0.0000e+00
      0.058      0.009     6.8670     79.965     36.558  35.051655     5.4631      7.565   199.0507 2.7400e+02     1.9546      0.057      0.083    22.9319 0.0000e+00
      0.058      0.007     6.6606     77.564     36.603  35.096078     5.4575      7.560   201.7400 2.7602e+02     1.9209      0.057      0.083    22.9325 0.0000e+00
      0.059      0.006     6.5112     75.825     36.597  35.090638     5.4578      7.555   199.7079 2.7628e+02     1.9182      0.058      0.084    22.9326 0.0000e+00
      0.060      0.007     6.4242     74.811     36.554  35.049407     5.4660      7.550   196.0759 2.7388e+02     1.8909      0.058      0.085    22.9329 0.0000e+00
      0.061      0.007     6.3893     74.404     36.547  35.042187     5.4833      7.545   194.9099 2.7032e+02     1.8656      0.059      0.085    22.9340 0.0000e+00
      0.063      0.007     6.3841     74.343     36.573  35.066876     5.5011      7.539   194.6438 2.6502e+02     1.8875      0.060      0.088    22.9357 0.0000e+00
      0.067      0.006     6.3889     74.399     36.601  35.093836     5.5167      7.533   194.5791 2.6384e+02     1.9423      0.066      0.095    22.9365 0.0000e+00
      0.071      0.004     6.3911     74.424     36.623  35.114074     5.5431      7.528   194.5572 2.6641e+02     1.9782      0.071      0.104    22.9367 0.0000e+00
      0.072      0.002     6.3856     74.358     36.630  35.121013     5.6726      7.521   194.4659 2.7020e+02     1.9865      0.071      0.104    22.9361 0.0000e+00
      0.069      0.002     6.3692     74.168     36.624  35.114208     5.8972      7.515   194.4209 2.7578e+02     1.9816      0.067      0.097    22.9355 0.0000e+00
      0.066      0.002     6.3383     73.808     36.604  35.095320     6.0167      7.511   194.7021 2.7644e+02     1.9496      0.063      0.092    22.9355 0.0000e+00
      0.066      0.002     6.2891     73.234     36.592  35.083197     6.0232      7.507   195.3701 2.7138e+02     1.9359      0.063      0.091    22.9349 0.0000e+00
      0.069      0.002     6.2246     72.484     36.603  35.094673     6.0222      7.503   199.7439 2.6981e+02     1.9678      0.067      0.097    22.9344 0.0000e+00
      0.073      0.002     6.1518     71.636     36.615  35.107039     6.0322      7.499   208.2657 2.7031e+02     1.9694      0.072      0.105    22.9338 0.0000e+00
      0.075      0.002     6.0779     70.775     36.614  35.105665     6.0515      7.495   209.8722 2.6899e+02     1.9245      0.074      0.108    22.9332 0.0000e+00
      0.073      0.002     6.0140     70.030     36.586  35.078060     6.0634      7.490   202.5628 2.7212e+02     1.9135      0.071      0.104    22.9336 0.0000e+00
      0.070      0.001     5.9723     69.544     36.534  35.027359     6.0740      7.484   197.7539 2.7786e+02     1.9579      0.068      0.098    22.9341 0.0000e+00
      0.069      0.001     5.9631     69.435     36.507  35.000798     6.0510      7.478   197.1570 2.7764e+02     1.9730      0.066      0.096    22.9345 0.0000e+00
      0.071      0.000     5.9884     69.728     36.519  35.010991     5.9881      7.473   196.8084 2.7439e+02     1.9437      0.069      0.100    22.9346 0.0000e+00
      0.074     -0.003     6.0387     70.312     36.534  35.023561     5.9566      7.469   196.4650 2.7071e+02     1.9396      0.072      0.105    22.9337 0.0000e+00
      0.076     -0.009     6.0997     71.017     36.538  35.025736     5.9555      7.465   196.4461 2.6612e+02     1.9234      0.075      0.109    22.9325 0.0000e+00
      0.075     -0.017     6.1598     71.712     36.553  35.037282     5.9095      7.460   196.5802 2.6886e+02     1.8391      0.076      0.110    22.9313 0.0000e+00
      0.069     -0.024     6.2129     72.326     36.554  35.036126     5.8235      7.455   196.7089 2.8104e+02     1.7446      0.070      0.101    22.9299 0.0000e+00
      0.057     -0.030     6.2516     72.771     36.532  35.011759     5.7707      7.451   196.9704 2.9328e+02     1.6964      0.056      0.081    22.9279 0.0000e+00
      0.044     -0.032     6.2652     72.925     36.519  34.996736     5.7584      7.447   197.1606 2.9902e+02     1.6837      0.042      0.060    22.9251 0.0000e+00
      0.034     -0.029     6.2505     72.751     36.504  34.981523     5.7673      7.442   197.2015 3.0034e+02     1.7434      0.033      0.047    22.9220 0.0000e+00
      0.028     -0.022     6.2144     72.331     36.476  34.954857     5.7764      7.436   197.2933 3.0276e+02     1.8688      0.027      0.039    22.9182 0.0000e+00
      0.023     -0.013     6.1682     71.794     36.448  34.928398     5.7667      7.428   197.4093 3.0474e+02     1.9493      0.021      0.031    22.9138 0.0000e+00
      0.020     -0.007     6.1269     71.314     36.434  34.915691     5.7606      7.419   197.4001 3.0280e+02     1.9528      0.017      0.025    22.9100 0.0000e+00
      0.022     -0.003     6.0951     70.947     36.447  34.928260     5.8138      7.413   197.3546 2.9897e+02     1.9123      0.020      0.028    22.9085 0.0000e+00
      0.027      0.002     6.0710     70.668     36.472  34.953334     5.9130      7.409   197.4612 2.9843e+02     1.8860      0.028      0.041    22.9088 0.0000e+00
      0.027      0.008     6.0647     70.595     36.483  34.964779     5.9673      7.407   197.6559 2.9522e+02     1.9105      0.028      0.042    22.9097 0.0000e+00
      0.023      0.013     6.0746     70.712     36.456  34.939600     5.9746      7.404   197.9029 2.8192e+02     1.9333      0.022      0.032    22.9107 0.0000e+00
      0.023      0.016     6.0911     70.904     36.417  34.902977     5.9735      7.401   198.2103 2.7242e+02     1.9169      0.020      0.028    22.9118 0.0000e+00
      0.030      0.016     6.1069     71.089     36.417  34.903092     5.9817      7.397   198.4469 2.7099e+02     1.8949      0.028      0.039    22.9131 0.0000e+00
      0.042      0.017     6.1065     71.085     36.456  34.940984     6.0089      7.392   198.7845 2.7204e+02     1.9127      0.043      0.062    22.9141 0.0000e+00
