* Sea-Bird SBE19plus  Data File:
* FileName = C:\R\Reservoirs\Data\DataNotYetUploadedToEDI\Raw_CTD\RawDownloads\011123_fcr50_S8188_0006.hex
* Software version 2.8.0.119
* Temperature SN = 8188
* Conductivity SN = 8188
* System UpLoad Time = Mar 20 2023 14:56:38
* <ApplicationData>
* <Seaterm232>
* <SoftwareVersion>2.8.0.119</SoftwareVersion>
* <BuildDate>07-Nov-2018</BuildDate>
* </Seaterm232>
* </ApplicationData>
* <InstrumentState>
* <HardwareData DeviceType='SBE19plus' SerialNumber='01908188'>
*
*    <Manufacturer>Sea-Bird Electronics, Inc.</Manufacturer>
*
*    <FirmwareVersion>3.1.8</FirmwareVersion>
*
*    <FirmwareDate>Mar  9 2016 16:22:29</FirmwareDate>
*
*    <CommandSetVersion>1.4</CommandSetVersion>
*
*    <PCBAssembly PCBSerialNum='260079' AssemblyNum='41054K'/>
*
*    <PCBAssembly PCBSerialNum='260083' AssemblyNum='41059E'/>
*
*    <PCBAssembly PCBSerialNum='260085' AssemblyNum='41606B'/>
*
*    <PCBAssembly PCBSerialNum='260081' AssemblyNum='41967C'/>
*
*    <MfgDate>30 Mar 2022</MfgDate>
*
*    <InternalSensors>
*
*       <Sensor id='Main Temperature'>
*
*          <type>temperature0</type>
*
*          <SerialNumber>01908188</SerialNumber>
*
*       </Sensor>
*
*       <Sensor id='Main Conductivity'>
*
*          <type>conductivity-0</type>
*
*          <SerialNumber>01908188</SerialNumber>
*
*       </Sensor>
*
*       <Sensor id='Main Pressure'>
*
*          <type>strain-0</type>
*
*          <SerialNumber>12220741</SerialNumber>
*
*       </Sensor>
*
*    </InternalSensors>
*
*    <ExternalSensors>
*
*       <Sensor id='volt 0'>
*
*          <type>CHL</type>
*
*          <SerialNumber>FLNTURT-7096</SerialNumber>
*
*       </Sensor>
*
*       <Sensor id='volt 1'>
*
*          <type>NTU</type>
*
*          <SerialNumber>FLNTURT-7096</SerialNumber>
*
*       </Sensor>
*
*       <Sensor id='volt 2'>
*
*          <type>OXY</type>
*
*          <SerialNumber>43-4269</SerialNumber>
*
*       </Sensor>
*
*       <Sensor id='volt 3'>
*
*          <type>not assigned</type>
*
*          <SerialNumber>not assigned</SerialNumber>
*
*       </Sensor>
*
*       <Sensor id='volt 4'>
*
*          <type>PAR</type>
*
*          <SerialNumber>PARLOGICSW-2209</SerialNumber>
*
*       </Sensor>
*
*       <Sensor id='volt 5'>
*
*          <type>not assigned</type>
*
*          <SerialNumber>not assigned</SerialNumber>
*
*       </Sensor>
*
*       <Sensor id='serial'>
*
*          <type>WETLABS</type>
*
*          <SerialNumber>FL3-7350</SerialNumber>
*
*       </Sensor>
*
*    </ExternalSensors>
*
* </HardwareData>
* <StatusData DeviceType='SBE19plus' SerialNumber='01908188'>
*
*    <DateTime>2023-03-20T11:53:43</DateTime>
*
*    <LoggingState>not logging</LoggingState>
*
*    <EventSummary numEvents='0'/>
*
*    <Power>
*
*       <vMain>12.8</vMain>
*
*       <vLith>8.5</vLith>
*
*       <iMain>61.8</iMain>
*
*       <iPump>56.3</iPump>
*
*       <iExt01>21.3</iExt01>
*
*       <iExt2345>20.0</iExt2345>
*
*       <iSerial>44.3</iSerial>
*
*    </Power>
*
*    <MemorySummary>
*
*       <Bytes>275075</Bytes>
*
*       <Samples>11003</Samples>
*
*       <SamplesFree>2620922</SamplesFree>
*
*       <SampleLength>25</SampleLength>
*
*       <Profiles>7</Profiles>
*
*    </MemorySummary>
*
* </StatusData>
* <ConfigurationData DeviceType='SBE19plus' SerialNumber='01908188'>
*
*    <ProfileMode>
*
*       <ScansToAverage>1</ScansToAverage>
*
*       <MinimumCondFreq>5</MinimumCondFreq>
*
*       <PumpDelay>40</PumpDelay>
*
*       <AutoRun>no</AutoRun>
*
*       <IgnoreSwitch>no</IgnoreSwitch>
*
*    </ProfileMode>
*
*    <Battery>
*
*       <Type>alkaline</Type>
*
*       <CutOff>7.5</CutOff>
*
*    </Battery>
*
*    <DataChannels>
*
*       <ExtVolt0>yes</ExtVolt0>
*
*       <ExtVolt1>yes</ExtVolt1>
*
*       <ExtVolt2>yes</ExtVolt2>
*
*       <ExtVolt3>no</ExtVolt3>
*
*       <ExtVolt4>yes</ExtVolt4>
*
*       <ExtVolt5>no</ExtVolt5>
*
*       <SBE38>no</SBE38>
*
*       <WETLABS>yes</WETLABS>
*
*       <OPTODE>no</OPTODE>
*
*       <SBE63>no</SBE63>
*
*       <SeaFET>no</SeaFET>
*
*       <GTD>no</GTD>
*
*    </DataChannels>
*
*    <EchoCharacters>yes</EchoCharacters>
*
*    <OutputExecutedTag>yes</OutputExecutedTag>
*
*    <OutputFormat>raw HEX</OutputFormat>
*
* </ConfigurationData>
* <CalibrationCoefficients DeviceType='SBE19plus' SerialNumber='01908188'>
*
*    <Calibration format='TEMP1' id='Main Temperature'>
*
*       <SerialNum>01908188</SerialNum>
*
*       <CalDate>21-Aug-22</CalDate>
*
*       <TA0>1.265284e-03</TA0>
*
*       <TA1>2.691806e-04</TA1>
*
*       <TA2>-5.655711e-07</TA2>
*
*       <TA3>1.602369e-07</TA3>
*
*       <TOFFSET>0.000000e+00</TOFFSET>
*
*    </Calibration>
*
*    <Calibration format='WBCOND0' id='Main Conductivity'>
*
*       <SerialNum>01908188</SerialNum>
*
*       <CalDate>21-Aug-22</CalDate>
*
*       <G>-1.009562e+00</G>
*
*       <H>1.439229e-01</H>
*
*       <I>-4.343583e-04</I>
*
*       <J>5.328694e-05</J>
*
*       <CPCOR>-9.570000e-08</CPCOR>
*
*       <CTCOR>3.250000e-06</CTCOR>
*
*       <CSLOPE>1.000000e+00</CSLOPE>
*
*    </Calibration>
*
*    <Calibration format='STRAIN0' id='Main Pressure'>
*
*       <SerialNum>12220741</SerialNum>
*
*       <CalDate>11-Aug-22</CalDate>
*
*       <PA0>1.627942e-01</PA0>
*
*       <PA1>4.835849e-04</PA1>
*
*       <PA2>-3.975488e-12</PA2>
*
*       <PTCA0>5.244803e+05</PTCA0>
*
*       <PTCA1>2.817194e+01</PTCA1>
*
*       <PTCA2>-5.842684e-01</PTCA2>
*
*       <PTCB0>2.522087e+01</PTCB0>
*
*       <PTCB1>5.750000e-04</PTCB1>
*
*       <PTCB2>0.000000e+00</PTCB2>
*
*       <PTEMPA0>-5.709556e+01</PTEMPA0>
*
*       <PTEMPA1>5.248567e+01</PTEMPA1>
*
*       <PTEMPA2>-2.281498e-01</PTEMPA2>
*
*       <POFFSET>-4.700000e-02</POFFSET>
*
*       <PRANGE>1.600000e+02</PRANGE>
*
*    </Calibration>
*
*    <Calibration format='VOLT0' id='Volt 0'>
*
*       <OFFSET>-4.657200e-02</OFFSET>
*
*       <SLOPE>1.248989e+00</SLOPE>
*
*    </Calibration>
*
*    <Calibration format='VOLT0' id='Volt 1'>
*
*       <OFFSET>-4.600800e-02</OFFSET>
*
*       <SLOPE>1.249849e+00</SLOPE>
*
*    </Calibration>
*
*    <Calibration format='VOLT0' id='Volt 2'>
*
*       <OFFSET>-4.668000e-02</OFFSET>
*
*       <SLOPE>1.250379e+00</SLOPE>
*
*    </Calibration>
*
*    <Calibration format='VOLT0' id='Volt 3'>
*
*       <OFFSET>-4.643200e-02</OFFSET>
*
*       <SLOPE>1.251002e+00</SLOPE>
*
*    </Calibration>
*
*    <Calibration format='VOLT0' id='Volt 4'>
*
*       <OFFSET>-4.606100e-02</OFFSET>
*
*       <SLOPE>1.249962e+00</SLOPE>
*
*    </Calibration>
*
*    <Calibration format='VOLT0' id='Volt 5'>
*
*       <OFFSET>-4.642700e-02</OFFSET>
*
*       <SLOPE>1.248530e+00</SLOPE>
*
*    </Calibration>
*
*    <Calibration format='FREQ0' id='external frequency channel'>
*
*       <EXTFREQSF>1.000018e+00</EXTFREQSF>
*
*    </Calibration>
*
* </CalibrationCoefficients>
* <EventCounters DeviceType='SBE19plus' SerialNumber='01908188'>
*
*    <EventSummary numEvents='0'/>
*
* </EventCounters></InstrumentState>
* <Headers>
*
* cast   6 06 Mar 2023 13:33:53 samples 8302 to 9319, avg = 1, stop = mag switch
*
# nquan = 16
# nvalues = 1018                        
# units = specified
# name 0 = depFM: Depth [fresh water, m]
# name 1 = dz/dtM: Descent Rate [m/s]
# name 2 = sbeox0Mg/L: Oxygen, SBE 43 [mg/l]
# name 3 = sbeox0PS: Oxygen, SBE 43 [% saturation]
# name 4 = specc: Specific Conductance [uS/cm]
# name 5 = c0uS/cm: Conductivity [uS/cm]
# name 6 = wetCDOM: Fluorescence, WET Labs CDOM [mg/m^3]
# name 7 = flECO-AFL: Fluorescence, WET Labs ECO-AFL/FL [mg/m^3]
# name 8 = flECO-AFL1: Fluorescence, WET Labs ECO-AFL/FL, 2 [mg/m^3]
# name 9 = flECO-AFL2: Fluorescence, WET Labs ECO-AFL/FL, 3 [mg/m^3]
# name 10 = par/sat/log: PAR/Logarithmic, Satlantic
# name 11 = turbWETntu0: Turbidity, WET Labs ECO [NTU]
# name 12 = prdM: Pressure, Strain Gauge [db]
# name 13 = prdE: Pressure, Strain Gauge [psi]
# name 14 = tv290C: Temperature [ITS-90, deg C]
# name 15 = flag:  0.000e+00
# span 0 =     -0.664,      9.560       
# span 1 =     -0.452,      0.201       
# span 2 =    -1.3348,    12.4827       
# span 3 =    -10.932,    109.313       
# span 4 =      1.143,    302.097       
# span 5 =   0.771693, 191.875103       
# span 6 =    -4.5000,     4.8600       
# span 7 =    -2.8507,   245.2229       
# span 8 =    -7.1142,     3.4932       
# span 9 =   -11.2095,     7.6563       
# span 10 = 1.1617e-01, 1.6677e+03      
# span 11 =    -4.8573,   966.4352      
# span 12 =     -0.651,      9.375      
# span 13 =     -0.944,     13.597      
# span 14 =     6.6619,    17.5363      
# span 15 = 0.0000e+00, 0.0000e+00      
# interval = seconds: 0.25
# start_time = Mar 06 2023 13:33:53 [Instrument's time stamp, header]
# bad_flag = -9.990e-29
# <Sensors count="10" >
#   <sensor Channel="1" >
#     <!-- Count, Temperature -->
#     <TemperatureSensor SensorID="58" >
#       <SerialNumber>8188</SerialNumber>
#       <CalibrationDate>21-Aug-22</CalibrationDate>
#       <A0>1.26528397e-003</A0>
#       <A1>2.69180636e-004</A1>
#       <A2>-5.65571102e-007</A2>
#       <A3>1.60236871e-007</A3>
#       <Slope>1.00000000</Slope>
#       <Offset>0.0000</Offset>
#     </TemperatureSensor>
#   </sensor>
#   <sensor Channel="2" >
#     <!-- Frequency 0, Conductivity -->
#     <ConductivitySensor SensorID="3" >
#       <SerialNumber>8188</SerialNumber>
#       <CalibrationDate>21-Aug-22</CalibrationDate>
#       <UseG_J>1</UseG_J>
#       <!-- Cell const and series R are applicable only for wide range sensors. -->
#       <SeriesR>0.0000</SeriesR>
#       <CellConst>2000.0000</CellConst>
#       <ConductivityType>0</ConductivityType>
#       <Coefficients equation="0" >
#         <A>0.00000000e+000</A>
#         <B>0.00000000e+000</B>
#         <C>0.00000000e+000</C>
#         <D>0.00000000e+000</D>
#         <M>0.0</M>
#         <CPcor>-9.57000000e-008</CPcor>
#       </Coefficients>
#       <Coefficients equation="1" >
#         <G>-1.00956200e+000</G>
#         <H>1.43922862e-001</H>
#         <I>-4.34358337e-004</I>
#         <J>5.32869425e-005</J>
#         <CPcor>-9.57000000e-008</CPcor>
#         <CTcor>3.2500e-006</CTcor>
#         <!-- WBOTC not applicable unless ConductivityType = 1. -->
#         <WBOTC>0.00000000e+000</WBOTC>
#       </Coefficients>
#       <Slope>1.00000000</Slope>
#       <Offset>0.00000</Offset>
#     </ConductivitySensor>
#   </sensor>
#   <sensor Channel="3" >
#     <!-- Count, Pressure, Strain Gauge -->
#     <PressureSensor SensorID="46" >
#       <SerialNumber>8188</SerialNumber>
#       <CalibrationDate>11-Aug-22</CalibrationDate>
#       <PA0>1.62794185e-001</PA0>
#       <PA1>4.83584930e-004</PA1>
#       <PA2>-3.97548787e-012</PA2>
#       <PTEMPA0>-5.70955636e+001</PTEMPA0>
#       <PTEMPA1>5.24856726e+001</PTEMPA1>
#       <PTEMPA2>-2.28149804e-001</PTEMPA2>
#       <PTCA0>5.24480263e+005</PTCA0>
#       <PTCA1>2.81719406e+001</PTCA1>
#       <PTCA2>-5.84268386e-001</PTCA2>
#       <PTCB0>2.52208750e+001</PTCB0>
#       <PTCB1>5.75000000e-004</PTCB1>
#       <PTCB2>0.00000000e+000</PTCB2>
#       <Offset>0.000000</Offset>
#     </PressureSensor>
#   </sensor>
#   <sensor Channel="4" >
#     <!-- A/D voltage 0, Fluorometer, WET Labs ECO-AFL/FL -->
#     <FluoroWetlabECO_AFL_FL_Sensor SensorID="20" >
#       <SerialNumber>FLNTURT-7096</SerialNumber>
#       <CalibrationDate>01-Sep-2022</CalibrationDate>
#       <ScaleFactor>5.00000000e+001</ScaleFactor>
#       <!-- Dark output -->
#       <Vblank>0.0680</Vblank>
#     </FluoroWetlabECO_AFL_FL_Sensor>
#   </sensor>
#   <sensor Channel="5" >
#     <!-- A/D voltage 1, Turbidity Meter, WET Labs, ECO-NTU -->
#     <TurbidityMeter SensorID="67" >
#       <SerialNumber>FLNTURT-7096</SerialNumber>
#       <CalibrationDate>01-Sep-2022</CalibrationDate>
#       <ScaleFactor>197.000000</ScaleFactor>
#       <!-- Dark output -->
#       <DarkVoltage>0.067000</DarkVoltage>
#     </TurbidityMeter>
#   </sensor>
#   <sensor Channel="6" >
#     <!-- A/D voltage 2, Oxygen, SBE 43 -->
#     <OxygenSensor SensorID="38" >
#       <SerialNumber>4269</SerialNumber>
#       <CalibrationDate>16-Aug-22</CalibrationDate>
#       <Use2007Equation>1</Use2007Equation>
#       <CalibrationCoefficients equation="0" >
#         <!-- Coefficients for Owens-Millard equation. -->
#         <Boc>0.0000</Boc>
#         <Soc>0.0000e+000</Soc>
#         <offset>0.0000</offset>
#         <Pcor>0.00e+000</Pcor>
#         <Tcor>0.0000</Tcor>
#         <Tau>0.0</Tau>
#       </CalibrationCoefficients>
#       <CalibrationCoefficients equation="1" >
#         <!-- Coefficients for Sea-Bird equation - SBE calibration in 2007 and later. -->
#         <Soc>4.2506e-001</Soc>
#         <offset>-0.4922</offset>
#         <A>-4.5893e-003</A>
#         <B> 1.8653e-004</B>
#         <C>-2.0781e-006</C>
#         <D0> 2.5826e+000</D0>
#         <D1> 1.92634e-004</D1>
#         <D2>-4.64803e-002</D2>
#         <E> 3.6000e-002</E>
#         <Tau20> 2.3100</Tau20>
#         <H1>-3.3000e-002</H1>
#         <H2> 5.0000e+003</H2>
#         <H3> 1.4500e+003</H3>
#       </CalibrationCoefficients>
#     </OxygenSensor>
#   </sensor>
#   <sensor Channel="7" >
#     <!-- A/D voltage 3, PAR/Logarithmic, Satlantic -->
#     <PARLog_SatlanticSensor SensorID="76" >
#       <SerialNumber>2209</SerialNumber>
#       <CalibrationDate>14-Jan-2022</CalibrationDate>
#       <a0>9.8861e-001</a0>
#       <a1>8.0845e-001</a1>
#       <Im>1.3589e+000</Im>
#       <Multiplier>1.0000e+000</Multiplier>
#     </PARLog_SatlanticSensor>
#   </sensor>
#   <sensor Channel="8" >
#     <!-- Serial RS-232, Fluorometer, WET Labs ECO-AFL/FL, 2 -->
#     <FluoroWetlabECO_AFL_FL_Sensor SensorID="20" >
#       <SerialNumber>FL3-7350</SerialNumber>
#       <CalibrationDate>10-Mar-2022</CalibrationDate>
#       <ScaleFactor>4.26000000e-002</ScaleFactor>
#       <!-- Dark output -->
#       <Vblank>50.0000</Vblank>
#     </FluoroWetlabECO_AFL_FL_Sensor>
#   </sensor>
#   <sensor Channel="9" >
#     <!-- Serial RS-232, Fluorometer, WET Labs ECO-AFL/FL, 3 -->
#     <FluoroWetlabECO_AFL_FL_Sensor SensorID="20" >
#       <SerialNumber>FL3-7350</SerialNumber>
#       <CalibrationDate>10-Mar-2022</CalibrationDate>
#       <ScaleFactor>4.23000000e-002</ScaleFactor>
#       <!-- Dark output -->
#       <Vblank>48.0000</Vblank>
#     </FluoroWetlabECO_AFL_FL_Sensor>
#   </sensor>
#   <sensor Channel="10" >
#     <!-- Serial RS-232, Fluorometer, WET Labs ECO CDOM -->
#     <FluoroWetlabCDOM_Sensor SensorID="19" >
#       <SerialNumber>FL3-7350</SerialNumber>
#       <CalibrationDate>10-Mar-2022</CalibrationDate>
#       <ScaleFactor>0.090</ScaleFactor>
#       <!-- Dark output -->
#       <Vblank>50.000</Vblank>
#     </FluoroWetlabCDOM_Sensor>
#   </sensor>
# </Sensors>
# datcnv_date = Mar 20 2023 15:37:33, 7.26.7.129 [datcnv_vars = 15]
# datcnv_in = C:\R\Reservoirs\Data\DataNotYetUploadedToEDI\Raw_CTD\RawDownloads\030623_fcr50_S8188006.hex C:\R\Reservoirs\Data\DataNotYetUploadedToEDI\Raw_CTD\RawDownloads\SBE19plusV2_8188_start20221003.xmlcon
# datcnv_skipover = 0
# datcnv_ox_hysteresis_correction = yes
# datcnv_ox_tau_correction = yes
# filter_date = Mar 20 2023 15:44:42, 7.26.7.129
# filter_in = C:\R\Reservoirs\Data\DataNotYetUploadedToEDI\Raw_CTD\RawDownloads\030623_fcr50_S8188006.cnv
# filter_low_pass_tc_A = 0.500
# filter_low_pass_tc_B = 1.000
# filter_low_pass_A_vars = sbeox0Mg/L sbeox0PS specc c0uS/cm tv290C
# filter_low_pass_B_vars = depFM dz/dtM prdM prdE
# alignctd_date = Mar 20 2023 15:45:28, 7.26.7.129
# alignctd_in = C:\R\Reservoirs\Data\DataNotYetUploadedToEDI\Raw_CTD\RawDownloads\030623_fcr50_S8188006.cnv
# alignctd_adv = dz/dtM 1.000, sbeox0PS 1.000, specc 1.000, c0uS/cm 1.000, flECO-AFL 1.000, turbWETntu0 1.000                                                                                                                        
# file_type = ascii
*END*
     -0.663 4.5605e-09     8.7021     88.514      3.011   2.477769    -4.5000    -0.1308    -2.1300    -2.0304 1.6834e+02    -0.0326     -0.650     -0.943    16.1050 0.0000e+00
     -0.663 5.8635e-09     8.7038     88.548      3.049   2.509627    -4.5000    -0.1231    -2.1300    -2.0304 1.5724e+02    -0.1078     -0.650     -0.943    16.1116 0.0000e+00
     -0.663 7.5388e-09     8.7059     88.570      3.110   2.561236    -4.5000    -0.1002    -2.1300    -2.0304 1.4831e+02    -0.0927     -0.650     -0.943    16.1199 0.0000e+00
     -0.663 9.6927e-09     8.7083     88.581      3.131   2.579128     0.0000    -0.1079     0.0000     0.1692 1.1548e+03    -0.3933     -0.650     -0.943    16.1298 0.0000e+00
     -0.663 1.2462e-08     8.7102     88.580      3.010   2.481072     0.0000    -0.1041     0.0000     0.1692 1.2402e+03    -0.3482     -0.650     -0.943    16.1416 0.0000e+00
     -0.663 1.6023e-08     8.7108     88.571      2.791   2.302217     0.0000    -0.1041     0.0000     0.1692 1.3177e+03    -0.3182     -0.650     -0.943    16.1565 0.0000e+00
     -0.663 2.0601e-08     8.7095     88.563      2.569   2.121416     0.0000    -0.0850     0.0000     0.1692 5.5057e+02    -0.4084     -0.650     -0.943    16.1756 0.0000e+00
     -0.663 2.6486e-08     8.7061     88.559      2.377   1.965595     0.0000    -0.0773     0.0000     0.1692 2.0884e+02    -0.4384     -0.650     -0.943    16.2001 0.0000e+00
     -0.663 3.4054e-08     8.7001     88.564      2.213   1.832745     0.0000    -0.0888    -0.0426    -0.4230 2.2036e+02    -0.4084     -0.650     -0.943    16.2318 0.0000e+00
     -0.663 4.3784e-08     8.6918     88.579      2.060   1.709189     0.0000    -0.1269    -0.0426    -0.4230 2.5818e+02    -0.4084     -0.650     -0.943    16.2725 0.0000e+00
     -0.663 5.6293e-08     8.6817     88.605      1.918   1.593616     0.0000    -0.1002    -0.0426    -0.4230 8.9695e+02    -0.4234     -0.650     -0.943    16.3231 0.0000e+00
     -0.663 7.2377e-08     8.6707     88.643      1.792   1.490795     0.0000    -0.1002    -0.0426    -0.4230 1.3522e+03    -0.3933     -0.650     -0.943    16.3815 0.0000e+00
     -0.663 9.3056e-08     8.6596     88.689      1.679   1.399013     0.0000    -0.0926    -0.6390     1.0152 1.3540e+03    -0.3031     -0.650     -0.943    16.4444 0.0000e+00
     -0.663 1.1964e-07     8.6494     88.735      1.584   1.321473     0.0000    -0.0926    -0.6390     1.0152 1.3584e+03    -0.4084     -0.650     -0.943    16.5086 0.0000e+00
     -0.663 1.5383e-07     8.6404     88.775      1.512   1.263203     0.0000    -0.0850    -0.6390     1.0152 1.3495e+03    -0.3783     -0.650     -0.943    16.5721 0.0000e+00
     -0.664 1.9778e-07     8.6330     88.807      1.450   1.212619     0.0000    -0.1117    -0.6390     1.0152 1.3607e+03    -0.4084     -0.651     -0.944    16.6333 0.0000e+00
     -0.664 2.5429e-07     8.6270     88.832      1.381   1.156231     0.1800    -0.0850    -0.2982     2.4957 1.3643e+03    -0.3933     -0.651     -0.944    16.6916 0.0000e+00
     -0.664 3.2694e-07     8.6215     88.850      1.315   1.102729     0.1800    -0.1002    -0.2982     2.4957 1.3575e+03    -0.3482     -0.651     -0.944    16.7464 0.0000e+00
     -0.664 4.2035e-07     8.6162     88.860      1.281   1.075411     0.1800    -0.1002    -0.2982     2.4957 1.3682e+03    -0.4084     -0.651     -0.944    16.7976 0.0000e+00
     -0.664 5.4045e-07     8.6107     88.859      1.291   1.084787     0.1800    -0.1079    -0.2982     2.4957 1.3177e+03    -0.3783     -0.651     -0.944    16.8452 0.0000e+00
     -0.664 6.9487e-07     8.6051     88.848      1.341   1.127426    -0.2700    -0.1002    -0.6390     0.1269 2.2569e+02    -0.3332     -0.651     -0.944    16.8893 0.0000e+00
     -0.664 8.9340e-07     8.5995     88.833      1.422   1.196905    -0.2700    -0.1117    -0.6390     0.1269 1.6344e+02    -0.3783     -0.651     -0.944    16.9302 0.0000e+00
     -0.664      0.000     8.5937     88.817      1.544   1.299888    -0.2700    -0.1346    -0.6390     0.1269 1.9797e+02    -0.4534     -0.651     -0.944    16.9679 0.0000e+00
