* Sea-Bird SBE19plus  Data File:
* FileName = C:\DATA\042318_fcr_0003.hex
* Software version 2.6.3.104 SB_Terminal.dll
* Temperature SN = 7809
* Conductivity SN = 7809
* System UpLoad Time = Apr 23 2018 14:25:07
* <ApplicationData>
* <Seaterm232>
* <SoftwareVersion>2.6.3.104</SoftwareVersion>
* <BuildDate>30-Jun-2017</BuildDate>
* </Seaterm232>
* </ApplicationData>
* cast   3 23 Apr 2018 16:29:10 samples 2677 to 3697, avg = 1, stop = mag switch
# nquan = 15
# nvalues = 851                         
# units = specified
# name 0 = depFM: Depth [fresh water, m]
# name 1 = dz/dtM: Descent Rate [m/s]
# name 2 = sbeox0Mg/L: Oxygen, SBE 43 [mg/l]
# name 3 = sbeox0PS: Oxygen, SBE 43 [% saturation]
# name 4 = specc: Specific Conductance [uS/cm]
# name 5 = c0uS/cm: Conductivity [uS/cm]
# name 6 = flECO-AFL: Fluorescence, WET Labs ECO-AFL/FL [mg/m^3]
# name 7 = ph: pH
# name 8 = orp: Oxidation Reduction Potential [mV]
# name 9 = par/sat/log: PAR/Logarithmic, Satlantic
# name 10 = turbWETntu0: Turbidity, WET Labs ECO [NTU]
# name 11 = prdM: Pressure, Strain Gauge [db]
# name 12 = prdE: Pressure, Strain Gauge [psi]
# name 13 = tv290C: Temperature [ITS-90, deg C]
# name 14 = flag:  0.000e+00
# span 0 =     -0.336,      8.512       
# span 1 =     -0.108,      0.217       
# span 2 =     6.6115,    10.7880       
# span 3 =     58.809,    103.698       
# span 4 =     35.948,     38.762       
# span 5 =  24.661837,  28.798216       
# span 6 =     0.2831,     6.7074       
# span 7 =      6.667,      7.323       
# span 8 =   224.4266,   304.5256       
# span 9 = 5.2601e-01, 4.6243e+02       
# span 10 =     0.9505,    28.7447      
# span 11 =     -0.348,      8.350      
# span 12 =     -0.505,     12.111      
# span 13 =     7.0542,    13.6671      
# span 14 = 0.0000e+00, 0.0000e+00      
# interval = seconds: 0.25
# start_time = Apr 23 2018 16:29:10 [Instrument's time stamp, header]
# bad_flag = -9.990e-29
# <Sensors count="9" >
#   <sensor Channel="1" >
#     <!-- Count, Temperature -->
#     <TemperatureSensor SensorID="58" >
#       <SerialNumber>7809</SerialNumber>
#       <CalibrationDate>09-Mar-18</CalibrationDate>
#       <A0>1.21093245e-003</A0>
#       <A1>2.84356597e-004</A1>
#       <A2>-1.94507398e-006</A2>
#       <A3>2.12806664e-007</A3>
#       <Slope>1.00000000</Slope>
#       <Offset>0.0000</Offset>
#     </TemperatureSensor>
#   </sensor>
#   <sensor Channel="2" >
#     <!-- Frequency 0, Conductivity -->
#     <ConductivitySensor SensorID="3" >
#       <SerialNumber>7809</SerialNumber>
#       <CalibrationDate>09-Mar-18</CalibrationDate>
#       <UseG_J>1</UseG_J>
#       <!-- Cell const and series R are applicable only for wide range sensors. -->
#       <SeriesR>0.0000</SeriesR>
#       <CellConst>2000.0000</CellConst>
#       <ConductivityType>0</ConductivityType>
#       <Coefficients equation="0" >
#         <A>0.00000000e+000</A>
#         <B>0.00000000e+000</B>
#         <C>0.00000000e+000</C>
#         <D>0.00000000e+000</D>
#         <M>0.0</M>
#         <CPcor>-9.57000000e-008</CPcor>
#       </Coefficients>
#       <Coefficients equation="1" >
#         <G>-1.00672082e+000</G>
#         <H>1.26906489e-001</H>
#         <I>-1.40584351e-004</I>
#         <J>2.47837121e-005</J>
#         <CPcor>-9.57000000e-008</CPcor>
#         <CTcor>3.2500e-006</CTcor>
#         <!-- WBOTC not applicable unless ConductivityType = 1. -->
#         <WBOTC>0.00000000e+000</WBOTC>
#       </Coefficients>
#       <Slope>1.00000000</Slope>
#       <Offset>0.00000</Offset>
#     </ConductivitySensor>
#   </sensor>
#   <sensor Channel="3" >
#     <!-- Count, Pressure, Strain Gauge -->
#     <PressureSensor SensorID="46" >
#       <SerialNumber>7809</SerialNumber>
#       <CalibrationDate>07-Mar-18</CalibrationDate>
#       <PA0>-4.08176359e-002</PA0>
#       <PA1>4.85188419e-004</PA1>
#       <PA2>-3.51168169e-012</PA2>
#       <PTEMPA0>-5.37806900e+001</PTEMPA0>
#       <PTEMPA1>5.36620721e+001</PTEMPA1>
#       <PTEMPA2>4.87214332e-002</PTEMPA2>
#       <PTCA0>5.25213435e+005</PTCA0>
#       <PTCA1>1.79532409e+000</PTCA1>
#       <PTCA2>-2.84353509e-001</PTCA2>
#       <PTCB0>2.51668750e+001</PTCB0>
#       <PTCB1>3.75000000e-004</PTCB1>
#       <PTCB2>0.00000000e+000</PTCB2>
#       <Offset>0.000000</Offset>
#     </PressureSensor>
#   </sensor>
#   <sensor Channel="4" >
#     <!-- A/D voltage 0, pH -->
#     <pH_Sensor SensorID="43" >
#       <SerialNumber>0363</SerialNumber>
#       <CalibrationDate>16-Mar-18</CalibrationDate>
#       <Slope>4.6194</Slope>
#       <Offset>2.5947</Offset>
#     </pH_Sensor>
#   </sensor>
#   <sensor Channel="5" >
#     <!-- A/D voltage 1, Oxidation Reduction Potential -->
#     <OxidationReductionPotentialSensor SensorID="41" >
#       <SerialNumber>0363</SerialNumber>
#       <CalibrationDate>16-Mar-18</CalibrationDate>
#       <B>2.499480</B>
#       <M>-0.496195</M>
#       <Offset>0.0</Offset>
#     </OxidationReductionPotentialSensor>
#   </sensor>
#   <sensor Channel="6" >
#     <!-- A/D voltage 2, Oxygen, SBE 43 -->
#     <OxygenSensor SensorID="38" >
#       <SerialNumber>0434</SerialNumber>
#       <CalibrationDate>13-Mar-18</CalibrationDate>
#       <Use2007Equation>1</Use2007Equation>
#       <CalibrationCoefficients equation="0" >
#         <!-- Coefficients for Owens-Millard equation. -->
#         <Boc>0.0000</Boc>
#         <Soc>0.0000e+000</Soc>
#         <offset>0.0000</offset>
#         <Pcor>0.00e+000</Pcor>
#         <Tcor>0.0000</Tcor>
#         <Tau>0.0</Tau>
#       </CalibrationCoefficients>
#       <CalibrationCoefficients equation="1" >
#         <!-- Coefficients for Sea-Bird equation - SBE calibration in 2007 and later. -->
#         <Soc>4.5718e-001</Soc>
#         <offset>-0.6113</offset>
#         <A>-4.0649e-003</A>
#         <B> 2.0945e-004</B>
#         <C>-3.3182e-006</C>
#         <D0> 2.5826e+000</D0>
#         <D1> 1.92634e-004</D1>
#         <D2>-4.64803e-002</D2>
#         <E> 3.6000e-002</E>
#         <Tau20> 1.2200</Tau20>
#         <H1>-3.3000e-002</H1>
#         <H2> 5.0000e+003</H2>
#         <H3> 1.4500e+003</H3>
#       </CalibrationCoefficients>
#     </OxygenSensor>
#   </sensor>
#   <sensor Channel="7" >
#     <!-- A/D voltage 3, PAR/Logarithmic, Satlantic -->
#     <PARLog_SatlanticSensor SensorID="76" >
#       <SerialNumber>1122</SerialNumber>
#       <CalibrationDate>22-Jun-2017</CalibrationDate>
#       <a0>9.6090e-001</a0>
#       <a1>8.0780e-001</a1>
#       <Im>1.3589e+000</Im>
#       <Multiplier>1.0000e+000</Multiplier>
#     </PARLog_SatlanticSensor>
#   </sensor>
#   <sensor Channel="8" >
#     <!-- A/D voltage 4, Fluorometer, WET Labs ECO-AFL/FL -->
#     <FluoroWetlabECO_AFL_FL_Sensor SensorID="20" >
#       <SerialNumber>FLNTURT-2496</SerialNumber>
#       <CalibrationDate>25-Jan-2017</CalibrationDate>
#       <ScaleFactor>5.30000000e+001</ScaleFactor>
#       <!-- Dark output -->
#       <Vblank>0.0560</Vblank>
#     </FluoroWetlabECO_AFL_FL_Sensor>
#   </sensor>
#   <sensor Channel="9" >
#     <!-- A/D voltage 5, Turbidity Meter, WET Labs, ECO-NTU -->
#     <TurbidityMeter SensorID="67" >
#       <SerialNumber>FLNTURT-2496</SerialNumber>
#       <CalibrationDate>25-Jan-2017</CalibrationDate>
#       <ScaleFactor>176.000000</ScaleFactor>
#       <!-- Dark output -->
#       <DarkVoltage>0.072000</DarkVoltage>
#     </TurbidityMeter>
#   </sensor>
# </Sensors>
# datcnv_date = May 08 2018 08:16:28, 7.26.7.114 [datcnv_vars = 14]
# datcnv_in = C:\DATA\042318_fcr47.hex C:\DATA\SBE19plusV2_7809.xmlcon
# datcnv_skipover = 0
# datcnv_ox_hysteresis_correction = yes
# datcnv_ox_tau_correction = yes
# filter_date = May 08 2018 08:16:55, 7.26.7.114
# filter_in = C:\DATA\042318_fcr47.cnv
# filter_low_pass_tc_A = 0.030
# filter_low_pass_tc_B = 0.150
# filter_low_pass_A_vars = prdM prdE tv290C
# filter_low_pass_B_vars = depFM dz/dtM sbeox0Mg/L sbeox0PS specc c0uS/cm flECO-AFL ph orp par/sat/log turbWETntu0
# alignctd_date = May 08 2018 08:17:15, 7.26.7.114
# alignctd_in = C:\DATA\042318_fcr47.cnv
# alignctd_adv = dz/dtM 1.000, sbeox0Mg/L 1.000, sbeox0PS 1.000, specc 1.000, c0uS/cm 1.000, flECO-AFL 1.000, ph 1.000, orp 1.000, turbWETntu0 1.000                                                                                 
# file_type = ascii
*END*
     -0.336      0.129    10.2536     98.768     37.041  28.645313     0.2831      7.198   230.7378 3.7487e+02    28.7213     -0.348     -0.505    13.6057 0.0000e+00
     -0.283      0.166    10.2589     98.805     36.883  28.518422     0.3096      7.267   225.6535 3.7448e+02    28.7447     -0.280     -0.406    13.6345 0.0000e+00
     -0.218      0.197    10.2707     98.887     36.860  28.490392     0.4202      7.293   224.4266 3.5758e+02    21.7636     -0.206     -0.300    13.6555 0.0000e+00
     -0.160      0.216    10.2913     99.049     36.885  28.496889     0.6189      7.284   225.8838 3.2472e+02     8.8290     -0.158     -0.229    13.6632 0.0000e+00
     -0.104      0.217    10.3234     99.331     37.027  28.596972     0.7364      7.250   227.5274 3.0067e+02     1.7490     -0.104     -0.150    13.6671 0.0000e+00
     -0.044      0.199    10.3671     99.732     37.231  28.747944     0.7474      7.192   227.9515 3.0069e+02     1.1029     -0.041     -0.059    13.6604 0.0000e+00
      0.012      0.169    10.4161    100.194     37.300  28.798216     0.7517      7.118   228.0002 2.9237e+02     1.0780      0.015      0.022    13.6436 0.0000e+00
      0.058      0.130    10.4682    100.700     37.249  28.760286     0.7797      7.060   228.3742 2.5875e+02     1.0816      0.059      0.087    13.6245 0.0000e+00
      0.093      0.087    10.5263    101.272     37.126  28.670361     0.8093      7.030   229.0313 2.3380e+02     1.0555      0.097      0.141    13.6116 0.0000e+00
      0.109      0.047    10.5829    101.822     36.951  28.536467     0.8155      7.022   229.8363 2.3003e+02     1.0375      0.117      0.170    13.6029 0.0000e+00
      0.104      0.018    10.6294    102.261     36.792  28.411436     0.8093      7.025   230.5364 2.3928e+02     1.0467      0.106      0.155    13.5973 0.0000e+00
      0.085      0.002    10.6601    102.541     36.739  28.365138     0.7895      7.035   230.7850 2.4129e+02     1.0747      0.079      0.116    13.6003 0.0000e+00
      0.072     -0.002    10.6616    102.543     36.734  28.357693     0.7601      7.045   230.6054 2.3959e+02     1.1012      0.064      0.093    13.6108 0.0000e+00
      0.074      0.003    10.6204    102.137     36.691  28.321406     0.7476      7.052   230.6011 2.5202e+02     1.0918      0.070      0.099    13.6142 0.0000e+00
      0.086      0.015    10.5208    101.172     36.676  28.307394     0.7491      7.054   230.8193 2.6118e+02     1.0530      0.086      0.125    13.6077 0.0000e+00
      0.097      0.027    10.3596     99.617     36.689  28.315282     0.7509      7.051   230.9218 2.6772e+02     1.1214      0.096      0.140    13.5998 0.0000e+00
      0.104      0.033    10.1595     97.691     36.657  28.289777     0.7514      7.046   231.0655 2.7555e+02     1.2777      0.101      0.146    13.5945 0.0000e+00
      0.111      0.033     9.9443     95.621     36.609  28.253022     0.7453      7.042   231.4380 2.7891e+02     1.3245      0.108      0.159    13.5904 0.0000e+00
      0.119      0.032     9.7323     93.582     36.608  28.251874     0.7422      7.041   231.8118 2.7986e+02     1.2605      0.117      0.170    13.5870 0.0000e+00
      0.127      0.032     9.5378     91.713     36.638  28.275900     0.7601      7.036   231.9720 2.7763e+02     1.1754      0.124      0.180    13.5848 0.0000e+00
      0.137      0.031     9.3718     90.118     36.656  28.289516     0.7867      7.021   232.0845 2.7720e+02     1.1198      0.134      0.195    13.5839 0.0000e+00
      0.146      0.028     9.2414     88.864     36.656  28.289508     0.8067      7.005   232.3118 2.7964e+02     1.1064      0.143      0.208    13.5842 0.0000e+00
      0.153      0.021     9.1469     87.955     36.638  28.275798     0.8171      7.000   232.5683 2.8246e+02     1.1053      0.150      0.218    13.5845 0.0000e+00
      0.159      0.013     9.0834     87.343     36.606  28.250753     0.8111      7.008   232.6918 2.8757e+02     1.1059      0.157      0.228    13.5847 0.0000e+00
      0.163      0.006     9.0373     86.898     36.594  28.240687     0.8175      7.023   232.7723 2.9420e+02     1.1143      0.162      0.235    13.5848 0.0000e+00
      0.162      0.004     8.9987     86.525     36.647  28.281096     0.8572      7.035   232.7665 3.0142e+02     1.1150      0.162      0.234    13.5848 0.0000e+00
      0.155      0.004     8.9632     86.184     36.747  28.358328     0.8773      7.041   232.6220 3.0695e+02     1.0837      0.153      0.222    13.5848 0.0000e+00
      0.149      0.005     8.9252     85.822     36.815  28.412488     0.8681      7.042   232.7458 3.0650e+02     1.0405      0.142      0.206    13.5846 0.0000e+00
      0.154      0.009     8.8900     85.488     36.834  28.427926     0.8831      7.046   233.0593 3.0120e+02     1.0203      0.147      0.212    13.5835 0.0000e+00
      0.165      0.014     8.8704     85.303     36.819  28.417983     0.9131      7.054   233.3150 2.9835e+02     1.0225      0.166      0.241    13.5817 0.0000e+00
      0.171      0.017     8.8677     85.280     36.819  28.419275     0.9270      7.064   233.5997 2.9493e+02     1.0373      0.170      0.246    13.5821 0.0000e+00
      0.173      0.017     8.8773     85.375     36.849  28.443542     0.9320      7.074   234.0928 2.8948e+02     1.0767      0.168      0.243    13.5840 0.0000e+00
      0.178      0.014     8.8917     85.515     36.867  28.457396     0.9359      7.083   234.7175 2.8819e+02     1.2547      0.176      0.255    13.5859 0.0000e+00
      0.182      0.009     8.9032     85.624     36.870  28.459780     0.9376      7.088   235.1299 2.8604e+02     1.5417      0.180      0.260    13.5884 0.0000e+00
      0.182      0.001     8.9118     85.704     36.888  28.472365     0.9344      7.093   235.2926 2.8421e+02     1.6783      0.179      0.258    13.5906 0.0000e+00
      0.182     -0.016     8.9149     85.730     36.903  28.482558     0.9336      7.099   235.3090 2.8372e+02     1.6555      0.177      0.256    13.5918 0.0000e+00
      0.186     -0.044     8.9036     85.619     36.870  28.456025     0.9381      7.106   235.3280 2.7998e+02     1.4795      0.183      0.265    13.5923 0.0000e+00
      0.186     -0.074     8.8757     85.348     36.806  28.405558     0.9425      7.114   235.6085 2.8309e+02     1.1982      0.191      0.276    13.5916 0.0000e+00
      0.165     -0.097     8.8411     85.013     36.775  28.380365     0.9402      7.123   236.1187 3.1147e+02     1.0920      0.174      0.251    13.5900 0.0000e+00
      0.120     -0.108     8.8126     84.737     36.808  28.405432     0.9285      7.129   236.6790 3.5022e+02     1.1107      0.122      0.178    13.5881 0.0000e+00
      0.065     -0.106     8.7955     84.572     36.873  28.454640     0.9113      7.133   237.0490 3.7244e+02     1.0894      0.057      0.083    13.5864 0.0000e+00
      0.024     -0.091     8.7864     84.485     36.888  28.467320     0.8886      7.137   237.1504 3.8061e+02     1.0476      0.013      0.018    13.5851 0.0000e+00
      0.009     -0.061     8.7792     84.422     36.838  28.431736     0.8739      7.138   237.3030 3.7945e+02     1.0322      0.002      0.004    13.5837 0.0000e+00
      0.010     -0.021     8.7722     84.362     36.801  28.405410     0.8716      7.137   237.6033 3.7634e+02     1.0563      0.009      0.015    13.5826 0.0000e+00
      0.014      0.018     8.7684     84.329     36.796  28.403027     0.8708      7.136   237.8559 3.7963e+02     1.0651      0.014      0.021    13.5819 0.0000e+00
      0.021      0.048     8.7708     84.351     36.796  28.402923     0.8736      7.137   237.9479 3.8455e+02     1.1375      0.017      0.024    13.5821 0.0000e+00
      0.037      0.065     8.7794     84.432     36.798  28.404152     0.8780      7.139   238.1131 3.7624e+02     1.2908      0.032      0.046    13.5860 0.0000e+00
      0.063      0.071     8.7888     84.521     36.817  28.417891     0.8780      7.145   238.3908 3.5345e+02     1.3627      0.061      0.089    13.5909 0.0000e+00
      0.091      0.070     8.7910     84.540     36.850  28.442032     0.8825      7.155   238.4664 3.3210e+02     1.3347      0.090      0.132    13.5925 0.0000e+00
      0.115      0.060     8.7821     84.453     36.850  28.442032     0.9143      7.166   238.5108 3.1931e+02     1.2269      0.116      0.168    13.5918 0.0000e+00
      0.130      0.044     8.7637     84.273     36.820  28.417891     0.9680      7.176   238.6697 3.1543e+02     1.0974      0.132      0.190    13.5908 0.0000e+00
      0.135      0.027     8.7348     83.992     36.805  28.404151     1.0082      7.183   238.7530 3.1380e+02     1.0504      0.135      0.195    13.5899 0.0000e+00
      0.134      0.013     8.6905     83.562     36.805  28.402901     1.0237      7.188   238.9156 3.1359e+02     1.0555      0.132      0.192    13.5891 0.0000e+00
      0.131      0.004     8.6354     83.029     36.806  28.402778     1.0440      7.192   239.2586 3.1691e+02     1.0678      0.128      0.186    13.5880 0.0000e+00
      0.130     -0.001     8.5820     82.513     36.808  28.402653     1.0884      7.195   239.7175 3.1678e+02     1.0760      0.126      0.183    13.5864 0.0000e+00
      0.130     -0.002     8.5432     82.138     36.808  28.401393     1.1204      7.198   240.1612 3.1343e+02     1.0632      0.127      0.184    13.5844 0.0000e+00
      0.131     -0.002     8.5281     81.990     36.791  28.387548     1.1273      7.199   240.4082 3.1193e+02     1.0662      0.128      0.185    13.5827 0.0000e+00
      0.131     -0.003     8.5382     82.086     36.759  28.362252     1.0978      7.200   240.4663 3.1166e+02     1.0819      0.130      0.188    13.5808 0.0000e+00
      0.131     -0.011     8.5668     82.360     36.742  28.349543     1.0308      7.203   240.5198 3.0991e+02     1.0701      0.128      0.186    13.5787 0.0000e+00
      0.130     -0.025     8.6093     82.767     36.757  28.360889     0.9969      7.208   240.7972 3.1072e+02     1.0761      0.126      0.183    13.5774 0.0000e+00
      0.129     -0.038     8.6588     83.244     36.773  28.372435     1.0096      7.212   241.0670 3.1737e+02     1.0936      0.130      0.188    13.5766 0.0000e+00
      0.120     -0.044     8.6988     83.626     36.761  28.362138     1.0378      7.215   241.2010 3.4078e+02     1.0681      0.125      0.182    13.5757 0.0000e+00
      0.095     -0.042     8.7244     83.869     36.763  28.363396     1.0621      7.215   241.5561 3.7519e+02     1.0425      0.093      0.136    13.5755 0.0000e+00
      0.068     -0.031     8.7369     83.989     36.795  28.387641     1.0645      7.210   241.9201 3.9097e+02     1.0580      0.059      0.086    13.5756 0.0000e+00
      0.055     -0.016     8.7343     83.964     36.812  28.401277     1.0578      7.203   242.0746 3.9762e+02     1.0726      0.049      0.070    13.5751 0.0000e+00
      0.059      0.001     8.7163     83.793     36.812  28.401267     1.0542      7.196   242.2194 3.9641e+02     1.0664      0.053      0.076    13.5739 0.0000e+00
      0.074      0.017     8.6816     83.461     36.793  28.387525     1.0578      7.190   242.3802 3.7833e+02     1.0449      0.073      0.106    13.5722 0.0000e+00
      0.091      0.024     8.6348     83.012     36.759  28.362126     1.0648      7.185   242.6413 3.6342e+02     0.9949      0.094      0.137    13.5713 0.0000e+00
