* Sea-Bird SBE19plus  Data File:
* FileName = C:\DATA\042318_fcr_0006.hex
* Software version 2.6.3.104 SB_Terminal.dll
* Temperature SN = 7809
* Conductivity SN = 7809
* System UpLoad Time = Apr 23 2018 14:26:40
* <ApplicationData>
* <Seaterm232>
* <SoftwareVersion>2.6.3.104</SoftwareVersion>
* <BuildDate>30-Jun-2017</BuildDate>
* </Seaterm232>
* </ApplicationData>
* cast   6 23 Apr 2018 18:07:14 samples 6342 to 7206, avg = 1, stop = mag switch
# nquan = 15
# nvalues = 770                         
# units = specified
# name 0 = depFM: Depth [fresh water, m]
# name 1 = dz/dtM: Descent Rate [m/s]
# name 2 = sbeox0Mg/L: Oxygen, SBE 43 [mg/l]
# name 3 = sbeox0PS: Oxygen, SBE 43 [% saturation]
# name 4 = specc: Specific Conductance [uS/cm]
# name 5 = c0uS/cm: Conductivity [uS/cm]
# name 6 = flECO-AFL: Fluorescence, WET Labs ECO-AFL/FL [mg/m^3]
# name 7 = ph: pH
# name 8 = orp: Oxidation Reduction Potential [mV]
# name 9 = par/sat/log: PAR/Logarithmic, Satlantic
# name 10 = turbWETntu0: Turbidity, WET Labs ECO [NTU]
# name 11 = prdM: Pressure, Strain Gauge [db]
# name 12 = prdE: Pressure, Strain Gauge [psi]
# name 13 = tv290C: Temperature [ITS-90, deg C]
# name 14 = flag:  0.000e+00
# span 0 =     -0.513,      9.790       
# span 1 =     -0.157,      0.264       
# span 2 =     6.4902,    10.8407       
# span 3 =     53.803,    104.356       
# span 4 =      0.536,     40.470       
# span 5 =   0.429838,  28.918265       
# span 6 =    -0.2158,     7.3773       
# span 7 =     -2.821,      7.821       
# span 8 = -1240.7455,   399.6452       
# span 9 = 1.6101e-01, 3.3078e+02       
# span 10 =    -0.3007,    19.6787      
# span 11 =     -0.503,      9.601      
# span 12 =     -0.730,     13.925      
# span 13 =     7.0886,    15.1696      
# span 14 = 0.0000e+00, 0.0000e+00      
# interval = seconds: 0.25
# start_time = Apr 23 2018 18:07:14 [Instrument's time stamp, header]
# bad_flag = -9.990e-29
# <Sensors count="9" >
#   <sensor Channel="1" >
#     <!-- Count, Temperature -->
#     <TemperatureSensor SensorID="58" >
#       <SerialNumber>7809</SerialNumber>
#       <CalibrationDate>09-Mar-18</CalibrationDate>
#       <A0>1.21093245e-003</A0>
#       <A1>2.84356597e-004</A1>
#       <A2>-1.94507398e-006</A2>
#       <A3>2.12806664e-007</A3>
#       <Slope>1.00000000</Slope>
#       <Offset>0.0000</Offset>
#     </TemperatureSensor>
#   </sensor>
#   <sensor Channel="2" >
#     <!-- Frequency 0, Conductivity -->
#     <ConductivitySensor SensorID="3" >
#       <SerialNumber>7809</SerialNumber>
#       <CalibrationDate>09-Mar-18</CalibrationDate>
#       <UseG_J>1</UseG_J>
#       <!-- Cell const and series R are applicable only for wide range sensors. -->
#       <SeriesR>0.0000</SeriesR>
#       <CellConst>2000.0000</CellConst>
#       <ConductivityType>0</ConductivityType>
#       <Coefficients equation="0" >
#         <A>0.00000000e+000</A>
#         <B>0.00000000e+000</B>
#         <C>0.00000000e+000</C>
#         <D>0.00000000e+000</D>
#         <M>0.0</M>
#         <CPcor>-9.57000000e-008</CPcor>
#       </Coefficients>
#       <Coefficients equation="1" >
#         <G>-1.00672082e+000</G>
#         <H>1.26906489e-001</H>
#         <I>-1.40584351e-004</I>
#         <J>2.47837121e-005</J>
#         <CPcor>-9.57000000e-008</CPcor>
#         <CTcor>3.2500e-006</CTcor>
#         <!-- WBOTC not applicable unless ConductivityType = 1. -->
#         <WBOTC>0.00000000e+000</WBOTC>
#       </Coefficients>
#       <Slope>1.00000000</Slope>
#       <Offset>0.00000</Offset>
#     </ConductivitySensor>
#   </sensor>
#   <sensor Channel="3" >
#     <!-- Count, Pressure, Strain Gauge -->
#     <PressureSensor SensorID="46" >
#       <SerialNumber>7809</SerialNumber>
#       <CalibrationDate>07-Mar-18</CalibrationDate>
#       <PA0>-4.08176359e-002</PA0>
#       <PA1>4.85188419e-004</PA1>
#       <PA2>-3.51168169e-012</PA2>
#       <PTEMPA0>-5.37806900e+001</PTEMPA0>
#       <PTEMPA1>5.36620721e+001</PTEMPA1>
#       <PTEMPA2>4.87214332e-002</PTEMPA2>
#       <PTCA0>5.25213435e+005</PTCA0>
#       <PTCA1>1.79532409e+000</PTCA1>
#       <PTCA2>-2.84353509e-001</PTCA2>
#       <PTCB0>2.51668750e+001</PTCB0>
#       <PTCB1>3.75000000e-004</PTCB1>
#       <PTCB2>0.00000000e+000</PTCB2>
#       <Offset>0.000000</Offset>
#     </PressureSensor>
#   </sensor>
#   <sensor Channel="4" >
#     <!-- A/D voltage 0, pH -->
#     <pH_Sensor SensorID="43" >
#       <SerialNumber>0363</SerialNumber>
#       <CalibrationDate>16-Mar-18</CalibrationDate>
#       <Slope>4.6194</Slope>
#       <Offset>2.5947</Offset>
#     </pH_Sensor>
#   </sensor>
#   <sensor Channel="5" >
#     <!-- A/D voltage 1, Oxidation Reduction Potential -->
#     <OxidationReductionPotentialSensor SensorID="41" >
#       <SerialNumber>0363</SerialNumber>
#       <CalibrationDate>16-Mar-18</CalibrationDate>
#       <B>2.499480</B>
#       <M>-0.496195</M>
#       <Offset>0.0</Offset>
#     </OxidationReductionPotentialSensor>
#   </sensor>
#   <sensor Channel="6" >
#     <!-- A/D voltage 2, Oxygen, SBE 43 -->
#     <OxygenSensor SensorID="38" >
#       <SerialNumber>0434</SerialNumber>
#       <CalibrationDate>13-Mar-18</CalibrationDate>
#       <Use2007Equation>1</Use2007Equation>
#       <CalibrationCoefficients equation="0" >
#         <!-- Coefficients for Owens-Millard equation. -->
#         <Boc>0.0000</Boc>
#         <Soc>0.0000e+000</Soc>
#         <offset>0.0000</offset>
#         <Pcor>0.00e+000</Pcor>
#         <Tcor>0.0000</Tcor>
#         <Tau>0.0</Tau>
#       </CalibrationCoefficients>
#       <CalibrationCoefficients equation="1" >
#         <!-- Coefficients for Sea-Bird equation - SBE calibration in 2007 and later. -->
#         <Soc>4.5718e-001</Soc>
#         <offset>-0.6113</offset>
#         <A>-4.0649e-003</A>
#         <B> 2.0945e-004</B>
#         <C>-3.3182e-006</C>
#         <D0> 2.5826e+000</D0>
#         <D1> 1.92634e-004</D1>
#         <D2>-4.64803e-002</D2>
#         <E> 3.6000e-002</E>
#         <Tau20> 1.2200</Tau20>
#         <H1>-3.3000e-002</H1>
#         <H2> 5.0000e+003</H2>
#         <H3> 1.4500e+003</H3>
#       </CalibrationCoefficients>
#     </OxygenSensor>
#   </sensor>
#   <sensor Channel="7" >
#     <!-- A/D voltage 3, PAR/Logarithmic, Satlantic -->
#     <PARLog_SatlanticSensor SensorID="76" >
#       <SerialNumber>1122</SerialNumber>
#       <CalibrationDate>22-Jun-2017</CalibrationDate>
#       <a0>9.6090e-001</a0>
#       <a1>8.0780e-001</a1>
#       <Im>1.3589e+000</Im>
#       <Multiplier>1.0000e+000</Multiplier>
#     </PARLog_SatlanticSensor>
#   </sensor>
#   <sensor Channel="8" >
#     <!-- A/D voltage 4, Fluorometer, WET Labs ECO-AFL/FL -->
#     <FluoroWetlabECO_AFL_FL_Sensor SensorID="20" >
#       <SerialNumber>FLNTURT-2496</SerialNumber>
#       <CalibrationDate>25-Jan-2017</CalibrationDate>
#       <ScaleFactor>5.30000000e+001</ScaleFactor>
#       <!-- Dark output -->
#       <Vblank>0.0560</Vblank>
#     </FluoroWetlabECO_AFL_FL_Sensor>
#   </sensor>
#   <sensor Channel="9" >
#     <!-- A/D voltage 5, Turbidity Meter, WET Labs, ECO-NTU -->
#     <TurbidityMeter SensorID="67" >
#       <SerialNumber>FLNTURT-2496</SerialNumber>
#       <CalibrationDate>25-Jan-2017</CalibrationDate>
#       <ScaleFactor>176.000000</ScaleFactor>
#       <!-- Dark output -->
#       <DarkVoltage>0.072000</DarkVoltage>
#     </TurbidityMeter>
#   </sensor>
# </Sensors>
# datcnv_date = May 08 2018 08:16:29, 7.26.7.114 [datcnv_vars = 14]
# datcnv_in = C:\DATA\042318_fcr50(2).hex C:\DATA\SBE19plusV2_7809.xmlcon
# datcnv_skipover = 0
# datcnv_ox_hysteresis_correction = yes
# datcnv_ox_tau_correction = yes
# filter_date = May 08 2018 08:16:55, 7.26.7.114
# filter_in = C:\DATA\042318_fcr50(2).cnv
# filter_low_pass_tc_A = 0.030
# filter_low_pass_tc_B = 0.150
# filter_low_pass_A_vars = prdM prdE tv290C
# filter_low_pass_B_vars = depFM dz/dtM sbeox0Mg/L sbeox0PS specc c0uS/cm flECO-AFL ph orp par/sat/log turbWETntu0
# alignctd_date = May 08 2018 08:17:15, 7.26.7.114
# alignctd_in = C:\DATA\042318_fcr50(2).cnv
# alignctd_adv = dz/dtM 1.000, sbeox0Mg/L 1.000, sbeox0PS 1.000, specc 1.000, c0uS/cm 1.000, flECO-AFL 1.000, ph 1.000, orp 1.000, turbWETntu0 1.000                                                                                 
# file_type = ascii
*END*
     -0.513 3.0491e-10     9.9416     98.875      0.568   0.456242    -0.2158     -2.804 -1240.7455 3.2486e+02    -0.2332     -0.503     -0.730    15.1341 0.0000e+00
     -0.513 3.3586e-09     9.9430     98.879      0.582   0.467657    -0.2147     -2.819 -1240.7455 3.3069e+02    -0.2782     -0.503     -0.729    15.1372 0.0000e+00
     -0.513 3.6947e-08     9.9453     98.886      0.597   0.478978    -0.1993     -2.820 -1240.7455 3.3078e+02    -0.2643     -0.503     -0.729    15.1392 0.0000e+00
     -0.513 4.0642e-07     9.9483     98.896      0.581   0.466306    -0.1855     -2.820 -1240.7455 3.2535e+02    -0.2179     -0.503     -0.730    15.1373 0.0000e+00
     -0.513      0.000     9.9516     98.913      0.550   0.441263    -0.1857     -2.821 -1240.7455 3.1957e+02    -0.2049     -0.503     -0.730    15.1337 0.0000e+00
     -0.513      0.000     9.9545     98.939      0.536   0.429838    -0.1929     -2.821 -1240.7455 3.2027e+02    -0.1979     -0.503     -0.730    15.1293 0.0000e+00
     -0.513      0.001     9.9547     98.948      0.567   0.454984    -0.1993     -2.821 -1240.7455 3.1954e+02    -0.1949     -0.503     -0.729    15.1232 0.0000e+00
     -0.513      0.001     9.9522     98.933      0.613   0.491659    -0.1981     -2.820 -1240.7455 3.0216e+02    -0.2303     -0.503     -0.729    15.1117 0.0000e+00
     -0.513      0.000     9.9516     98.939      0.614   0.492802    -0.1971     -2.820 -1240.7455 2.8290e+02    -0.2895     -0.503     -0.730    15.1017 0.0000e+00
     -0.512 1.8783e-08     9.9515     98.950      0.584   0.468799    -0.1962     -2.820 -1240.7455 2.8078e+02    -0.3007     -0.502     -0.728    15.1013 0.0000e+00
     -0.512 2.0661e-07     9.9480     98.930      0.566   0.455087    -0.1874     -2.820 -1240.7455 2.8829e+02    -0.2433     -0.502     -0.728    15.1054 0.0000e+00
     -0.512 2.4060e-07     9.9440     98.905      0.565   0.453841    -0.1916     -2.820 -1240.7455 2.9947e+02    -0.2055     -0.502     -0.729    15.1113 0.0000e+00
     -0.512 4.2978e-07     9.9413     98.893      0.565   0.453728    -0.2097     -2.819 -1240.7455 3.1659e+02    -0.2101     -0.502     -0.729    15.1173 0.0000e+00
     -0.513      0.000     9.9402     98.895      0.565   0.453724    -0.2051     -2.819 -1240.7452 3.2854e+02    -0.2078     -0.503     -0.729    15.1223 0.0000e+00
     -0.513      0.000     9.9412     98.917      0.565   0.453796    -0.1902     -2.819 -1240.7423 3.1379e+02    -0.2087     -0.503     -0.730    15.1288 0.0000e+00
     -0.512      0.001     9.9434     98.948      0.566   0.454595    -0.1948     -2.819 -1240.7104 2.6635e+02    -0.2212     -0.502     -0.729    15.1364 0.0000e+00
     -0.512      0.001     9.9445     98.968      0.577   0.463385    -0.2064     -2.816 -1240.3590 2.1574e+02    -0.2366     -0.501     -0.727    15.1437 0.0000e+00
     -0.512      0.001     9.9451     98.980      0.698   0.560076    -0.2109     -2.784 -1236.4937 1.9388e+02    -0.2416     -0.502     -0.728    15.1495 0.0000e+00
     -0.512      0.004     9.9474     98.994      2.025   1.623677    -0.2033     -2.433 -1193.9759 2.0057e+02    -0.2214     -0.502     -0.728    15.1550 0.0000e+00
     -0.511      0.015     9.9601     99.001      8.413   6.727890    -0.1964     -0.864  -726.2797 2.2253e+02    -0.2057     -0.501     -0.727    15.1597 0.0000e+00
     -0.511      0.043    10.0012     99.008     20.936  16.663733    -0.2011      1.996    67.6341 2.4835e+02    -0.2042     -0.501     -0.727    15.1640 0.0000e+00
     -0.510      0.084    10.0665     99.013     31.900  25.245050    -0.2050      4.648   399.6452 2.7040e+02    -0.2037     -0.502     -0.728    15.1664 0.0000e+00
     -0.500      0.133    10.1282     99.009     35.885  28.228389    -0.2069      6.267   359.1758 2.8922e+02    -0.1686     -0.501     -0.727    15.1696 0.0000e+00
     -0.463      0.178    10.1750     99.002     36.321  28.420496    -0.1967      7.141   345.8784 3.0511e+02     0.2806     -0.470     -0.682    15.1638 0.0000e+00
     -0.392      0.217    10.2117     99.010     36.435  28.393135     0.0190      7.572   334.8869 3.1238e+02     5.3196     -0.388     -0.563    14.9734 0.0000e+00
     -0.307      0.247    10.2399     99.044     36.554  28.405437     0.4264      7.761   328.6646 3.1213e+02    14.5833     -0.297     -0.431    14.5969 0.0000e+00
     -0.230      0.264    10.2652     99.149     36.662  28.442145     0.6482      7.821   325.9686 3.1117e+02    19.6352     -0.219     -0.317    14.3061 0.0000e+00
     -0.169      0.261    10.2965     99.380     36.710  28.455903     0.6789      7.806   322.5951 3.1286e+02    19.6787     -0.163     -0.236    14.1077 0.0000e+00
     -0.111      0.241    10.3327     99.696     36.710  28.444758     0.7614      7.749   319.6249 3.1710e+02    14.9567     -0.118     -0.171    13.9403 0.0000e+00
     -0.044      0.217    10.3764    100.101     36.704  28.434375     0.8919      7.691   317.9324 2.9792e+02     6.2735     -0.043     -0.061    13.8348 0.0000e+00
      0.020      0.194    10.4309    100.618     36.737  28.457360     0.9519      7.649   316.4998 2.5536e+02     1.5454      0.030      0.044    13.7753 0.0000e+00
      0.064      0.175    10.4775    101.063     36.754  28.468669     0.9536      7.622   315.2952 2.3205e+02     1.0953      0.067      0.096    13.7492 0.0000e+00
      0.096      0.159    10.4991    101.265     36.725  28.444098     0.9853      7.608   314.8111 2.1958e+02     1.0757      0.091      0.133    13.7374 0.0000e+00
      0.127      0.146    10.4872    101.145     36.689  28.414278     1.0408      7.594   314.7761 2.0318e+02     1.1857      0.127      0.184    13.7294 0.0000e+00
      0.158      0.138    10.4287    100.575     36.625  28.362123     1.0739      7.576   315.2175 1.9623e+02     1.2964      0.153      0.222    13.7271 0.0000e+00
      0.193      0.133    10.3182     99.491     36.580  28.321496     1.0818      7.556   315.7590 1.9136e+02     1.3154      0.182      0.263    13.7267 0.0000e+00
      0.236      0.126    10.1555     97.890     36.571  28.304065     1.0908      7.530   315.6449 1.8294e+02     1.2317      0.235      0.341    13.7214 0.0000e+00
      0.274      0.114     9.9439     95.808     36.557  28.278350     1.1085      7.505   315.2141 1.7499e+02     1.1091      0.273      0.397    13.7202 0.0000e+00
      0.303      0.097     9.6991     93.408     36.558  28.264574     1.1217      7.487   314.9382 1.6776e+02     1.0533      0.299      0.433    13.7199 0.0000e+00
      0.324      0.077     9.4537     91.012     36.573  28.264479     1.1303      7.478   314.8910 1.6421e+02     1.0454      0.321      0.467    13.7117 0.0000e+00
      0.338      0.056     9.2493     89.025     36.599  28.277179     1.1396      7.475   314.8155 1.6579e+02     1.0444      0.332      0.482    13.6965 0.0000e+00
      0.346      0.039     9.1076     87.653     36.622  28.291128     1.1422      7.474   314.3697 1.6690e+02     1.0415      0.340      0.492    13.6746 0.0000e+00
      0.352      0.025     9.0275     86.878     36.642  28.306125     1.1347      7.472   313.8024 1.6496e+02     1.0411      0.344      0.500    13.6521 0.0000e+00
      0.357      0.015     8.9997     86.611     36.675  28.331506     1.1308      7.470   313.3766 1.6480e+02     1.0697      0.351      0.510    13.6349 0.0000e+00
      0.360      0.007     9.0087     86.698     36.691  28.344008     1.1315      7.467   312.9215 1.6753e+02     1.0820      0.355      0.514    13.6260 0.0000e+00
      0.360      0.002     9.0353     86.955     36.672  28.330278     1.1246      7.465   312.6877 1.6856e+02     1.0673      0.353      0.512    13.6226 0.0000e+00
      0.358     -0.001     9.0589     87.186     36.622  28.292502     1.1214      7.463   312.9597 1.6904e+02     1.0455      0.352      0.509    13.6215 0.0000e+00
      0.356     -0.002     9.0624     87.227     36.587  28.268268     1.1295      7.456   313.1119 1.7103e+02     1.0318      0.349      0.506    13.6220 0.0000e+00
      0.354     -0.001     9.0399     87.024     36.610  28.291274     1.1397      7.440   312.8929 1.7118e+02     1.0537      0.347      0.503    13.6226 0.0000e+00
      0.354      0.000     8.9927     86.586     36.635  28.316673     1.1257      7.420   312.7212 1.6986e+02     1.0662      0.346      0.502    13.6230 0.0000e+00
      0.355      0.002     8.9256     85.954     36.633  28.321366     1.0892      7.408   312.6710 1.7037e+02     1.0610      0.347      0.503    13.6242 0.0000e+00
      0.356      0.003     8.8472     85.208     36.663  28.348016     1.0665      7.407   312.2859 1.7104e+02     1.0518      0.349      0.507    13.6277 0.0000e+00
      0.358      0.004     8.7719     84.487     36.709  28.384897     1.0616      7.411   311.5927 1.7093e+02     1.0469      0.351      0.511    13.6346 0.0000e+00
      0.359      0.004     8.7177     83.965     36.711  28.386284     1.0673      7.416   311.3443 1.7244e+02     1.0630      0.352      0.511    13.6443 0.0000e+00
      0.359      0.004     8.6952     83.749     36.683  28.364787     1.0802      7.419   311.4335 1.7394e+02     1.0630      0.352      0.511    13.6530 0.0000e+00
      0.360      0.003     8.7053     83.849     36.700  28.378984     1.0801      7.423   311.4665 1.7315e+02     1.0465      0.353      0.512    13.6579 0.0000e+00
      0.361      0.003     8.7445     84.228     36.766  28.430942     1.0742      7.430   311.4854 1.7278e+02     1.0466      0.353      0.512    13.6591 0.0000e+00
      0.362      0.004     8.8075     84.837     36.835  28.484988     1.0925      7.438   311.0596 1.7375e+02     1.0644      0.355      0.514    13.6591 0.0000e+00
      0.364      0.004     8.8866     85.599     36.885  28.524444     1.1257      7.448   310.4482 1.7351e+02     1.0786      0.357      0.518    13.6592 0.0000e+00
      0.365      0.004     8.9704     86.404     36.890  28.526995     1.1443      7.458   310.2013 1.7119e+02     1.0658      0.358      0.519    13.6601 0.0000e+00
      0.366      0.005     9.0444     87.114     36.876  28.515838     1.1434      7.466   309.9674 1.6801e+02     1.0620      0.358      0.519    13.6621 0.0000e+00
      0.367      0.008     9.0992     87.643     36.877  28.516546     1.1428      7.470   309.7717 1.6593e+02     1.0945      0.360      0.521    13.6638 0.0000e+00
      0.367      0.012     9.1381     88.021     36.900  28.535553     1.1468      7.470   309.7278 1.6583e+02     1.0924      0.360      0.522    13.6635 0.0000e+00
      0.368      0.014     9.1663     88.296     36.924  28.555143     1.1458      7.470   309.6089 1.6611e+02     1.0671      0.360      0.523    13.6614 0.0000e+00
      0.373      0.014     9.1848     88.469     36.937  28.562898     1.1393      7.470   309.0223 1.6320e+02     1.0631      0.364      0.527    13.6602 0.0000e+00
      0.382      0.010     9.1923     88.530     36.946  28.565827     1.1325      7.473   308.0562 1.5745e+02     1.0433      0.376      0.546    13.6600 0.0000e+00
      0.389      0.003     9.1886     88.487     36.899  28.527051     1.1375      7.480   307.6502 1.5332e+02     1.0415      0.384      0.556    13.6623 0.0000e+00
      0.391     -0.005     9.1763     88.364     36.834  28.475063     1.1442      7.486   307.8990 1.5363e+02     1.0723      0.383      0.557    13.6665 0.0000e+00
