* Sea-Bird SBE19plus  Data File:
* FileName = C:\DATA\042318_fcr_0004.hex
* Software version 2.6.3.104 SB_Terminal.dll
* Temperature SN = 7809
* Conductivity SN = 7809
* System UpLoad Time = Apr 23 2018 14:25:38
* <ApplicationData>
* <Seaterm232>
* <SoftwareVersion>2.6.3.104</SoftwareVersion>
* <BuildDate>30-Jun-2017</BuildDate>
* </Seaterm232>
* </ApplicationData>
* cast   4 23 Apr 2018 16:38:42 samples 3698 to 4882, avg = 1, stop = mag switch
# nquan = 15
# nvalues = 1021                        
# units = specified
# name 0 = depFM: Depth [fresh water, m]
# name 1 = dz/dtM: Descent Rate [m/s]
# name 2 = sbeox0Mg/L: Oxygen, SBE 43 [mg/l]
# name 3 = sbeox0PS: Oxygen, SBE 43 [% saturation]
# name 4 = specc: Specific Conductance [uS/cm]
# name 5 = c0uS/cm: Conductivity [uS/cm]
# name 6 = flECO-AFL: Fluorescence, WET Labs ECO-AFL/FL [mg/m^3]
# name 7 = ph: pH
# name 8 = orp: Oxidation Reduction Potential [mV]
# name 9 = par/sat/log: PAR/Logarithmic, Satlantic
# name 10 = turbWETntu0: Turbidity, WET Labs ECO [NTU]
# name 11 = prdM: Pressure, Strain Gauge [db]
# name 12 = prdE: Pressure, Strain Gauge [psi]
# name 13 = tv290C: Temperature [ITS-90, deg C]
# name 14 = flag:  0.000e+00
# span 0 =     -0.507,      9.605       
# span 1 =     -0.129,      0.169       
# span 2 =     6.1642,    10.7926       
# span 3 =     50.809,    103.718       
# span 4 =      0.101,     39.767       
# span 5 =   0.073845,  28.286264       
# span 6 =    -0.2200,     7.0592       
# span 7 =      6.263,      7.793       
# span 8 =   175.7021,   950.7476       
# span 9 = 2.9265e-01, 6.2316e+02       
# span 10 =    -0.4448,     5.5586      
# span 11 =     -0.498,      9.420      
# span 12 =     -0.722,     13.662      
# span 13 =     7.0173,    13.5737      
# span 14 = 0.0000e+00, 0.0000e+00      
# interval = seconds: 0.25
# start_time = Apr 23 2018 16:38:42 [Instrument's time stamp, header]
# bad_flag = -9.990e-29
# <Sensors count="9" >
#   <sensor Channel="1" >
#     <!-- Count, Temperature -->
#     <TemperatureSensor SensorID="58" >
#       <SerialNumber>7809</SerialNumber>
#       <CalibrationDate>09-Mar-18</CalibrationDate>
#       <A0>1.21093245e-003</A0>
#       <A1>2.84356597e-004</A1>
#       <A2>-1.94507398e-006</A2>
#       <A3>2.12806664e-007</A3>
#       <Slope>1.00000000</Slope>
#       <Offset>0.0000</Offset>
#     </TemperatureSensor>
#   </sensor>
#   <sensor Channel="2" >
#     <!-- Frequency 0, Conductivity -->
#     <ConductivitySensor SensorID="3" >
#       <SerialNumber>7809</SerialNumber>
#       <CalibrationDate>09-Mar-18</CalibrationDate>
#       <UseG_J>1</UseG_J>
#       <!-- Cell const and series R are applicable only for wide range sensors. -->
#       <SeriesR>0.0000</SeriesR>
#       <CellConst>2000.0000</CellConst>
#       <ConductivityType>0</ConductivityType>
#       <Coefficients equation="0" >
#         <A>0.00000000e+000</A>
#         <B>0.00000000e+000</B>
#         <C>0.00000000e+000</C>
#         <D>0.00000000e+000</D>
#         <M>0.0</M>
#         <CPcor>-9.57000000e-008</CPcor>
#       </Coefficients>
#       <Coefficients equation="1" >
#         <G>-1.00672082e+000</G>
#         <H>1.26906489e-001</H>
#         <I>-1.40584351e-004</I>
#         <J>2.47837121e-005</J>
#         <CPcor>-9.57000000e-008</CPcor>
#         <CTcor>3.2500e-006</CTcor>
#         <!-- WBOTC not applicable unless ConductivityType = 1. -->
#         <WBOTC>0.00000000e+000</WBOTC>
#       </Coefficients>
#       <Slope>1.00000000</Slope>
#       <Offset>0.00000</Offset>
#     </ConductivitySensor>
#   </sensor>
#   <sensor Channel="3" >
#     <!-- Count, Pressure, Strain Gauge -->
#     <PressureSensor SensorID="46" >
#       <SerialNumber>7809</SerialNumber>
#       <CalibrationDate>07-Mar-18</CalibrationDate>
#       <PA0>-4.08176359e-002</PA0>
#       <PA1>4.85188419e-004</PA1>
#       <PA2>-3.51168169e-012</PA2>
#       <PTEMPA0>-5.37806900e+001</PTEMPA0>
#       <PTEMPA1>5.36620721e+001</PTEMPA1>
#       <PTEMPA2>4.87214332e-002</PTEMPA2>
#       <PTCA0>5.25213435e+005</PTCA0>
#       <PTCA1>1.79532409e+000</PTCA1>
#       <PTCA2>-2.84353509e-001</PTCA2>
#       <PTCB0>2.51668750e+001</PTCB0>
#       <PTCB1>3.75000000e-004</PTCB1>
#       <PTCB2>0.00000000e+000</PTCB2>
#       <Offset>0.000000</Offset>
#     </PressureSensor>
#   </sensor>
#   <sensor Channel="4" >
#     <!-- A/D voltage 0, pH -->
#     <pH_Sensor SensorID="43" >
#       <SerialNumber>0363</SerialNumber>
#       <CalibrationDate>16-Mar-18</CalibrationDate>
#       <Slope>4.6194</Slope>
#       <Offset>2.5947</Offset>
#     </pH_Sensor>
#   </sensor>
#   <sensor Channel="5" >
#     <!-- A/D voltage 1, Oxidation Reduction Potential -->
#     <OxidationReductionPotentialSensor SensorID="41" >
#       <SerialNumber>0363</SerialNumber>
#       <CalibrationDate>16-Mar-18</CalibrationDate>
#       <B>2.499480</B>
#       <M>-0.496195</M>
#       <Offset>0.0</Offset>
#     </OxidationReductionPotentialSensor>
#   </sensor>
#   <sensor Channel="6" >
#     <!-- A/D voltage 2, Oxygen, SBE 43 -->
#     <OxygenSensor SensorID="38" >
#       <SerialNumber>0434</SerialNumber>
#       <CalibrationDate>13-Mar-18</CalibrationDate>
#       <Use2007Equation>1</Use2007Equation>
#       <CalibrationCoefficients equation="0" >
#         <!-- Coefficients for Owens-Millard equation. -->
#         <Boc>0.0000</Boc>
#         <Soc>0.0000e+000</Soc>
#         <offset>0.0000</offset>
#         <Pcor>0.00e+000</Pcor>
#         <Tcor>0.0000</Tcor>
#         <Tau>0.0</Tau>
#       </CalibrationCoefficients>
#       <CalibrationCoefficients equation="1" >
#         <!-- Coefficients for Sea-Bird equation - SBE calibration in 2007 and later. -->
#         <Soc>4.5718e-001</Soc>
#         <offset>-0.6113</offset>
#         <A>-4.0649e-003</A>
#         <B> 2.0945e-004</B>
#         <C>-3.3182e-006</C>
#         <D0> 2.5826e+000</D0>
#         <D1> 1.92634e-004</D1>
#         <D2>-4.64803e-002</D2>
#         <E> 3.6000e-002</E>
#         <Tau20> 1.2200</Tau20>
#         <H1>-3.3000e-002</H1>
#         <H2> 5.0000e+003</H2>
#         <H3> 1.4500e+003</H3>
#       </CalibrationCoefficients>
#     </OxygenSensor>
#   </sensor>
#   <sensor Channel="7" >
#     <!-- A/D voltage 3, PAR/Logarithmic, Satlantic -->
#     <PARLog_SatlanticSensor SensorID="76" >
#       <SerialNumber>1122</SerialNumber>
#       <CalibrationDate>22-Jun-2017</CalibrationDate>
#       <a0>9.6090e-001</a0>
#       <a1>8.0780e-001</a1>
#       <Im>1.3589e+000</Im>
#       <Multiplier>1.0000e+000</Multiplier>
#     </PARLog_SatlanticSensor>
#   </sensor>
#   <sensor Channel="8" >
#     <!-- A/D voltage 4, Fluorometer, WET Labs ECO-AFL/FL -->
#     <FluoroWetlabECO_AFL_FL_Sensor SensorID="20" >
#       <SerialNumber>FLNTURT-2496</SerialNumber>
#       <CalibrationDate>25-Jan-2017</CalibrationDate>
#       <ScaleFactor>5.30000000e+001</ScaleFactor>
#       <!-- Dark output -->
#       <Vblank>0.0560</Vblank>
#     </FluoroWetlabECO_AFL_FL_Sensor>
#   </sensor>
#   <sensor Channel="9" >
#     <!-- A/D voltage 5, Turbidity Meter, WET Labs, ECO-NTU -->
#     <TurbidityMeter SensorID="67" >
#       <SerialNumber>FLNTURT-2496</SerialNumber>
#       <CalibrationDate>25-Jan-2017</CalibrationDate>
#       <ScaleFactor>176.000000</ScaleFactor>
#       <!-- Dark output -->
#       <DarkVoltage>0.072000</DarkVoltage>
#     </TurbidityMeter>
#   </sensor>
# </Sensors>
# datcnv_date = May 08 2018 08:16:29, 7.26.7.114 [datcnv_vars = 14]
# datcnv_in = C:\DATA\042318_fcr49.hex C:\DATA\SBE19plusV2_7809.xmlcon
# datcnv_skipover = 0
# datcnv_ox_hysteresis_correction = yes
# datcnv_ox_tau_correction = yes
# filter_date = May 08 2018 08:16:55, 7.26.7.114
# filter_in = C:\DATA\042318_fcr49.cnv
# filter_low_pass_tc_A = 0.030
# filter_low_pass_tc_B = 0.150
# filter_low_pass_A_vars = prdM prdE tv290C
# filter_low_pass_B_vars = depFM dz/dtM sbeox0Mg/L sbeox0PS specc c0uS/cm flECO-AFL ph orp par/sat/log turbWETntu0
# alignctd_date = May 08 2018 08:17:15, 7.26.7.114
# alignctd_in = C:\DATA\042318_fcr49.cnv
# alignctd_adv = dz/dtM 1.000, sbeox0Mg/L 1.000, sbeox0PS 1.000, specc 1.000, c0uS/cm 1.000, flECO-AFL 1.000, ph 1.000, orp 1.000, turbWETntu0 1.000                                                                                 
# file_type = ascii
*END*
     -0.507 1.6621e-08    10.6534     97.691      0.470   0.343289    -0.2112      6.397   193.6466 4.0145e+02    -0.4300     -0.497     -0.721    11.4777 0.0000e+00
     -0.507 1.8283e-07    10.6569     97.723      0.101   0.073845    -0.2195      6.336   175.7021 4.2783e+02    -0.4278     -0.497     -0.721    11.4789 0.0000e+00
     -0.507      0.000    10.6579     97.733      0.474   0.345945    -0.2200      6.290   183.0501 4.4036e+02    -0.4448     -0.497     -0.721    11.4799 0.0000e+00
     -0.507      0.000    10.6595     97.751      2.111   1.540337    -0.2177      6.263   201.7850 4.4061e+02    -0.3903     -0.497     -0.720    11.4812 0.0000e+00
     -0.507      0.000    10.6604     97.762      3.293   2.402793    -0.2097      6.264   231.4366 4.4187e+02    -0.2881     -0.497     -0.721    11.4816 0.0000e+00
     -0.507      0.003    10.6591     97.761      3.466   2.529814    -0.2061      6.349   415.9476 4.4634e+02    -0.2170     -0.497     -0.721    11.4831 0.0000e+00
     -0.507      0.009    10.6485     97.757      3.255   2.378523    -0.2109      6.543   749.8496 4.5537e+02    -0.2017     -0.497     -0.721    11.4823 0.0000e+00
     -0.507      0.019    10.6016     97.730      2.940   2.159028    -0.2125      6.750   935.2845 4.7054e+02    -0.2252     -0.498     -0.722    11.4857 0.0000e+00
     -0.506      0.028    10.5147     97.695      2.742   2.032191    -0.2156      6.918   950.7476 4.8942e+02    -0.2264     -0.497     -0.721    11.4822 0.0000e+00
     -0.498      0.036    10.4305     97.688      2.655   1.986502    -0.2125      7.083   947.3956 5.0597e+02    -0.2162     -0.494     -0.717    11.4890 0.0000e+00
     -0.479      0.042    10.3738     97.696      3.224   2.431064    -0.2024      7.240   945.5193 5.1972e+02    -0.2239     -0.470     -0.681    11.4797 0.0000e+00
     -0.461      0.045    10.3352     97.684      3.839   2.904484    -0.1952      7.366   942.9457 5.2622e+02    -0.2279     -0.447     -0.648    11.6240 0.0000e+00
     -0.451      0.042    10.3081     97.671      3.227   2.446693    -0.1977      7.471   934.5191 5.2235e+02    -0.2342     -0.444     -0.644    12.0719 0.0000e+00
     -0.442      0.032    10.2909     97.677      2.508   1.906170    -0.2051      7.571   932.9432 5.1569e+02    -0.2394     -0.436     -0.633    12.4646 0.0000e+00
     -0.432      0.018    10.2820     97.684      4.396   3.345245    -0.2121      7.663   937.6580 5.1374e+02    -0.2298     -0.421     -0.611    12.6784 0.0000e+00
     -0.425      0.010    10.2813     97.679      9.996   7.604960    -0.2179      7.737   785.6330 5.1041e+02    -0.2397     -0.414     -0.600    12.8321 0.0000e+00
     -0.427      0.015    10.2837     97.673     19.847  15.097760    -0.2107      7.782   470.5890 4.9875e+02    -0.2669     -0.416     -0.603    12.9367 0.0000e+00
     -0.437      0.035    10.2798     97.680     31.044  23.631139    -0.2067      7.793   289.6574 4.9925e+02    -0.2849     -0.427     -0.620    13.0138 0.0000e+00
     -0.446      0.067    10.2669     97.688     36.584  27.887648    -0.2158      7.781   272.7580 5.2075e+02    -0.2735     -0.446     -0.648    13.0634 0.0000e+00
     -0.433      0.103    10.2469     97.677     37.029  28.286264    -0.2111      7.758   276.0681 5.4492e+02    -0.1290     -0.438     -0.635    13.0552 0.0000e+00
     -0.390      0.136    10.2234     97.648     36.826  28.196853    -0.0768      7.732   278.7445 5.6512e+02     1.3397     -0.389     -0.563    13.0130 0.0000e+00
     -0.329      0.160    10.2035     97.636     36.673  28.140180     0.1673      7.707   279.3924 5.6529e+02     4.0258     -0.322     -0.469    13.0353 0.0000e+00
     -0.267      0.169    10.1914     97.652     36.574  28.109113     0.2965      7.683   279.2558 5.1106e+02     5.4929     -0.255     -0.371    13.1037 0.0000e+00
     -0.219      0.162    10.1873     97.688     36.496  28.075274     0.3093      7.658   276.4909 4.4477e+02     5.5586     -0.208     -0.302    13.1880 0.0000e+00
     -0.186      0.144    10.1918     97.768     36.445  28.048571     0.3681      7.638   271.6017 4.5182e+02     4.4234     -0.181     -0.264    13.2852 0.0000e+00
     -0.160      0.125    10.2026     97.890     36.427  28.040257     0.4834      7.625   268.9253 4.9946e+02     2.2962     -0.157     -0.228    13.3719 0.0000e+00
     -0.134      0.111    10.2181     98.046     36.421  28.038257     0.5534      7.617   268.4797 5.2676e+02     1.1708     -0.132     -0.191    13.4346 0.0000e+00
     -0.109      0.104    10.2401     98.258     36.403  28.024387     0.5719      7.613   268.3656 5.4125e+02     1.0702     -0.107     -0.155    13.4660 0.0000e+00
     -0.084      0.100    10.2681     98.527     36.370  27.999564     0.5963      7.611   268.6638 5.4500e+02     1.1104     -0.083     -0.123    13.4792 0.0000e+00
     -0.056      0.098    10.3068     98.902     36.359  27.992120     0.6193      7.607   269.3319 5.2895e+02     1.2296     -0.056     -0.082    13.4864 0.0000e+00
     -0.028      0.095    10.3630     99.447     36.364  27.997883     0.6291      7.602   269.9902 5.0192e+02     1.2902     -0.025     -0.035    13.4900 0.0000e+00
     -0.005      0.091    10.4218    100.013     36.373  28.005747     0.6410      7.596   270.2564 4.8641e+02     1.3245     -0.003     -0.004    13.4894 0.0000e+00
      0.015      0.083    10.4521    100.306     36.396  28.023698     0.6616      7.590   270.2283 4.8712e+02     1.2790      0.012      0.018    13.4878 0.0000e+00
      0.037      0.073    10.4321    100.117     36.396  28.024426     0.6953      7.585   270.0801 4.5758e+02     1.1358      0.036      0.052    13.4907 0.0000e+00
      0.058      0.066    10.3515     99.347     36.382  28.014555     0.7263      7.581   270.0992 3.7427e+02     1.0585      0.060      0.088    13.4941 0.0000e+00
      0.073      0.061    10.2089     97.981     36.402  28.031351     0.7342      7.577   270.6308 3.1581e+02     1.0470      0.074      0.107    13.4947 0.0000e+00
      0.082      0.059    10.0171     96.142     36.409  28.037009     0.7347      7.570   271.2597 3.1831e+02     1.0567      0.080      0.117    13.4945 0.0000e+00
      0.092      0.061     9.8001     94.063     36.384  28.019474     0.7326      7.564   271.5086 3.2196e+02     1.0536      0.088      0.127    13.4960 0.0000e+00
      0.106      0.071     9.5829     91.987     36.368  28.009827     0.7180      7.559   271.5753 3.1040e+02     1.0402      0.103      0.149    13.4984 0.0000e+00
      0.125      0.089     9.3887     90.131     36.330  27.983864     0.7144      7.553   271.5503 3.0338e+02     1.0772      0.122      0.178    13.4990 0.0000e+00
      0.145      0.111     9.2340     88.648     36.297  27.959568     0.7256      7.548   271.3774 3.0503e+02     1.1051      0.140      0.202    13.4993 0.0000e+00
      0.173      0.130     9.1273     87.621     36.312  27.970058     0.7252      7.543   271.2915 3.0664e+02     1.0722      0.163      0.236    13.5010 0.0000e+00
      0.215      0.141     9.0666     87.040     36.329  27.983703     0.7283      7.540   271.4586 3.0329e+02     1.0151      0.206      0.300    13.5057 0.0000e+00
      0.266      0.142     9.0363     86.751     36.346  27.997548     0.7355      7.539   271.7634 3.0774e+02     0.9945      0.262      0.381    13.5120 0.0000e+00
      0.312      0.135     9.0216     86.608     36.363  28.010456     0.7292      7.538   272.1377 3.1751e+02     1.0064      0.311      0.452    13.5119 0.0000e+00
      0.347      0.119     9.0143     86.537     36.367  28.012775     0.7262      7.536   272.6283 3.2041e+02     1.0063      0.343      0.498    13.5089 0.0000e+00
      0.371      0.096     9.0063     86.461     36.383  28.025586     0.7260      7.531   273.1345 3.1880e+02     1.0239      0.366      0.530    13.5109 0.0000e+00
      0.388      0.073     8.9918     86.327     36.398  28.038349     0.7273      7.527   273.4408 3.2220e+02     1.0355      0.382      0.554    13.5123 0.0000e+00
      0.400      0.055     8.9666     86.091     36.397  28.040091     0.7416      7.524   273.4925 3.2956e+02     1.0255      0.393      0.571    13.5110 0.0000e+00
      0.410      0.041     8.9264     85.711     36.403  28.046648     0.7612      7.523   273.5014 3.3262e+02     1.0241      0.402      0.583    13.5101 0.0000e+00
      0.418      0.029     8.8737     85.208     36.411  28.054136     0.7809      7.522   273.6335 3.3208e+02     1.0187      0.410      0.595    13.5103 0.0000e+00
      0.427      0.018     8.8164     84.661     36.426  28.067132     0.7957      7.522   273.7997 3.3236e+02     1.0213      0.418      0.607    13.5127 0.0000e+00
      0.432      0.011     8.7624     84.143     36.438  28.076790     0.8024      7.522   273.9626 3.3594e+02     1.0555      0.427      0.618    13.5167 0.0000e+00
      0.432      0.007     8.7199     83.734     36.396  28.043901     0.8159      7.523   274.0546 3.4199e+02     1.0964      0.427      0.619    13.5199 0.0000e+00
      0.427      0.005     8.6985     83.524     36.325  27.986971     0.8394      7.525   273.8796 3.4846e+02     1.0884      0.418      0.607    13.5214 0.0000e+00
      0.422     -0.002     8.6997     83.519     36.298  27.959953     0.8574      7.526   273.5676 3.5187e+02     1.0513      0.411      0.596    13.5231 0.0000e+00
      0.425     -0.016     8.7183     83.666     36.328  27.971219     0.8670      7.524   273.4656 3.4810e+02     1.0437      0.414      0.601    13.5238 0.0000e+00
      0.435     -0.031     8.7492     83.928     36.378  27.996178     0.8731      7.521   273.5919 3.4236e+02     1.1182      0.428      0.621    13.5230 0.0000e+00
      0.437     -0.046     8.7890     84.294     36.401  28.007713     0.8761      7.516   273.7181 3.4711e+02     1.2198      0.441      0.639    13.5216 0.0000e+00
      0.414     -0.063     8.8353     84.744     36.367  27.983689     0.8761      7.512   273.7012 3.5880e+02     1.2356      0.413      0.598    13.5151 0.0000e+00
      0.377     -0.083     8.8847     85.225     36.332  27.959714     0.8814      7.510   273.6457 3.6714e+02     1.2166      0.363      0.525    13.4960 0.0000e+00
      0.350     -0.102     8.9313     85.673     36.347  27.971834     0.8858      7.510   273.7357 3.7396e+02     1.2036      0.340      0.493    13.4713 0.0000e+00
      0.331     -0.114     8.9679     86.030     36.386  28.003228     0.8737      7.511   273.7568 3.8339e+02     1.1396      0.328      0.476    13.4620 0.0000e+00
      0.306     -0.120     8.9903     86.255     36.405  28.021795     0.8632      7.513   273.6420 3.9244e+02     1.0540      0.305      0.441    13.4713 0.0000e+00
      0.273     -0.125     8.9953     86.312     36.380  28.005839     0.8601      7.514   273.7242 4.0726e+02     1.0231      0.269      0.390    13.4766 0.0000e+00
      0.235     -0.129     8.9845     86.218     36.369  28.000803     0.8544      7.515   273.9764 4.1897e+02     1.0409      0.230      0.334    13.4737 0.0000e+00
      0.197     -0.129     8.9636     86.026     36.395  28.024413     0.8409      7.516   274.1962 4.2497e+02     1.0552      0.194      0.281    13.4768 0.0000e+00
      0.160     -0.119     8.9327     85.736     36.408  28.037310     0.8160      7.516   274.3172 4.6203e+02     1.0432      0.155      0.225    13.4830 0.0000e+00
