* Sea-Bird SBE19plus  Data File:
* FileName = C:\DATA\043018_fcr_0010.hex
* Software version 2.6.3.104 SB_Terminal.dll
* Temperature SN = 7809
* Conductivity SN = 7809
* System UpLoad Time = May 01 2018 12:00:32
* <ApplicationData>
* <Seaterm232>
* <SoftwareVersion>2.6.3.104</SoftwareVersion>
* <BuildDate>30-Jun-2017</BuildDate>
* </Seaterm232>
* </ApplicationData>
* cast  10 30 Apr 2018 20:25:24 samples 10281 to 11253, avg = 1, stop = mag switch
# nquan = 15
# nvalues = 799                         
# units = specified
# name 0 = depFM: Depth [fresh water, m]
# name 1 = dz/dtM: Descent Rate [m/s]
# name 2 = sbeox0Mg/L: Oxygen, SBE 43 [mg/l]
# name 3 = sbeox0PS: Oxygen, SBE 43 [% saturation]
# name 4 = specc: Specific Conductance [uS/cm]
# name 5 = c0uS/cm: Conductivity [uS/cm]
# name 6 = flECO-AFL: Fluorescence, WET Labs ECO-AFL/FL [mg/m^3]
# name 7 = ph: pH
# name 8 = orp: Oxidation Reduction Potential [mV]
# name 9 = par/sat/log: PAR/Logarithmic, Satlantic
# name 10 = turbWETntu0: Turbidity, WET Labs ECO [NTU]
# name 11 = prdM: Pressure, Strain Gauge [db]
# name 12 = prdE: Pressure, Strain Gauge [psi]
# name 13 = tv290C: Temperature [ITS-90, deg C]
# name 14 = flag:  0.000e+00
# span 0 =     -0.545,      5.589       
# span 1 =     -0.077,      0.391       
# span 2 =     6.4943,    10.5651       
# span 3 =     60.533,    106.410       
# span 4 =      0.383,     38.530       
# span 5 =   0.318184,  28.888176       
# span 6 =    -1.1895,     5.7691       
# span 7 =      6.639,     10.627       
# span 8 =    89.8157,  1240.2294       
# span 9 = 1.1732e+01, 1.9414e+03       
# span 10 =    -2.8245,   850.9948      
# span 11 =     -0.535,      5.481      
# span 12 =     -0.776,      7.950      
# span 13 =     8.1884,    16.5949      
# span 14 = 0.0000e+00, 0.0000e+00      
# interval = seconds: 0.25
# start_time = Apr 30 2018 20:25:24 [Instrument's time stamp, header]
# bad_flag = -9.990e-29
# <Sensors count="9" >
#   <sensor Channel="1" >
#     <!-- Count, Temperature -->
#     <TemperatureSensor SensorID="58" >
#       <SerialNumber>7809</SerialNumber>
#       <CalibrationDate>09-Mar-18</CalibrationDate>
#       <A0>1.21093245e-003</A0>
#       <A1>2.84356597e-004</A1>
#       <A2>-1.94507398e-006</A2>
#       <A3>2.12806664e-007</A3>
#       <Slope>1.00000000</Slope>
#       <Offset>0.0000</Offset>
#     </TemperatureSensor>
#   </sensor>
#   <sensor Channel="2" >
#     <!-- Frequency 0, Conductivity -->
#     <ConductivitySensor SensorID="3" >
#       <SerialNumber>7809</SerialNumber>
#       <CalibrationDate>09-Mar-18</CalibrationDate>
#       <UseG_J>1</UseG_J>
#       <!-- Cell const and series R are applicable only for wide range sensors. -->
#       <SeriesR>0.0000</SeriesR>
#       <CellConst>2000.0000</CellConst>
#       <ConductivityType>0</ConductivityType>
#       <Coefficients equation="0" >
#         <A>0.00000000e+000</A>
#         <B>0.00000000e+000</B>
#         <C>0.00000000e+000</C>
#         <D>0.00000000e+000</D>
#         <M>0.0</M>
#         <CPcor>-9.57000000e-008</CPcor>
#       </Coefficients>
#       <Coefficients equation="1" >
#         <G>-1.00672082e+000</G>
#         <H>1.26906489e-001</H>
#         <I>-1.40584351e-004</I>
#         <J>2.47837121e-005</J>
#         <CPcor>-9.57000000e-008</CPcor>
#         <CTcor>3.2500e-006</CTcor>
#         <!-- WBOTC not applicable unless ConductivityType = 1. -->
#         <WBOTC>0.00000000e+000</WBOTC>
#       </Coefficients>
#       <Slope>1.00000000</Slope>
#       <Offset>0.00000</Offset>
#     </ConductivitySensor>
#   </sensor>
#   <sensor Channel="3" >
#     <!-- Count, Pressure, Strain Gauge -->
#     <PressureSensor SensorID="46" >
#       <SerialNumber>7809</SerialNumber>
#       <CalibrationDate>07-Mar-18</CalibrationDate>
#       <PA0>-4.08176359e-002</PA0>
#       <PA1>4.85188419e-004</PA1>
#       <PA2>-3.51168169e-012</PA2>
#       <PTEMPA0>-5.37806900e+001</PTEMPA0>
#       <PTEMPA1>5.36620721e+001</PTEMPA1>
#       <PTEMPA2>4.87214332e-002</PTEMPA2>
#       <PTCA0>5.25213435e+005</PTCA0>
#       <PTCA1>1.79532409e+000</PTCA1>
#       <PTCA2>-2.84353509e-001</PTCA2>
#       <PTCB0>2.51668750e+001</PTCB0>
#       <PTCB1>3.75000000e-004</PTCB1>
#       <PTCB2>0.00000000e+000</PTCB2>
#       <Offset>0.000000</Offset>
#     </PressureSensor>
#   </sensor>
#   <sensor Channel="4" >
#     <!-- A/D voltage 0, pH -->
#     <pH_Sensor SensorID="43" >
#       <SerialNumber>0363</SerialNumber>
#       <CalibrationDate>16-Mar-18</CalibrationDate>
#       <Slope>4.6194</Slope>
#       <Offset>2.5947</Offset>
#     </pH_Sensor>
#   </sensor>
#   <sensor Channel="5" >
#     <!-- A/D voltage 1, Oxidation Reduction Potential -->
#     <OxidationReductionPotentialSensor SensorID="41" >
#       <SerialNumber>0363</SerialNumber>
#       <CalibrationDate>16-Mar-18</CalibrationDate>
#       <B>2.499480</B>
#       <M>-0.496195</M>
#       <Offset>0.0</Offset>
#     </OxidationReductionPotentialSensor>
#   </sensor>
#   <sensor Channel="6" >
#     <!-- A/D voltage 2, Oxygen, SBE 43 -->
#     <OxygenSensor SensorID="38" >
#       <SerialNumber>0434</SerialNumber>
#       <CalibrationDate>13-Mar-18</CalibrationDate>
#       <Use2007Equation>1</Use2007Equation>
#       <CalibrationCoefficients equation="0" >
#         <!-- Coefficients for Owens-Millard equation. -->
#         <Boc>0.0000</Boc>
#         <Soc>0.0000e+000</Soc>
#         <offset>0.0000</offset>
#         <Pcor>0.00e+000</Pcor>
#         <Tcor>0.0000</Tcor>
#         <Tau>0.0</Tau>
#       </CalibrationCoefficients>
#       <CalibrationCoefficients equation="1" >
#         <!-- Coefficients for Sea-Bird equation - SBE calibration in 2007 and later. -->
#         <Soc>4.5718e-001</Soc>
#         <offset>-0.6113</offset>
#         <A>-4.0649e-003</A>
#         <B> 2.0945e-004</B>
#         <C>-3.3182e-006</C>
#         <D0> 2.5826e+000</D0>
#         <D1> 1.92634e-004</D1>
#         <D2>-4.64803e-002</D2>
#         <E> 3.6000e-002</E>
#         <Tau20> 1.2200</Tau20>
#         <H1>-3.3000e-002</H1>
#         <H2> 5.0000e+003</H2>
#         <H3> 1.4500e+003</H3>
#       </CalibrationCoefficients>
#     </OxygenSensor>
#   </sensor>
#   <sensor Channel="7" >
#     <!-- A/D voltage 3, PAR/Logarithmic, Satlantic -->
#     <PARLog_SatlanticSensor SensorID="76" >
#       <SerialNumber>1122</SerialNumber>
#       <CalibrationDate>22-Jun-2017</CalibrationDate>
#       <a0>9.6090e-001</a0>
#       <a1>8.0780e-001</a1>
#       <Im>1.3589e+000</Im>
#       <Multiplier>1.0000e+000</Multiplier>
#     </PARLog_SatlanticSensor>
#   </sensor>
#   <sensor Channel="8" >
#     <!-- A/D voltage 4, Fluorometer, WET Labs ECO-AFL/FL -->
#     <FluoroWetlabECO_AFL_FL_Sensor SensorID="20" >
#       <SerialNumber>FLNTURT-2496</SerialNumber>
#       <CalibrationDate>25-Jan-2017</CalibrationDate>
#       <ScaleFactor>5.30000000e+001</ScaleFactor>
#       <!-- Dark output -->
#       <Vblank>0.0560</Vblank>
#     </FluoroWetlabECO_AFL_FL_Sensor>
#   </sensor>
#   <sensor Channel="9" >
#     <!-- A/D voltage 5, Turbidity Meter, WET Labs, ECO-NTU -->
#     <TurbidityMeter SensorID="67" >
#       <SerialNumber>FLNTURT-2496</SerialNumber>
#       <CalibrationDate>25-Jan-2017</CalibrationDate>
#       <ScaleFactor>176.000000</ScaleFactor>
#       <!-- Dark output -->
#       <DarkVoltage>0.072000</DarkVoltage>
#     </TurbidityMeter>
#   </sensor>
# </Sensors>
# datcnv_date = May 08 2018 08:16:31, 7.26.7.114 [datcnv_vars = 14]
# datcnv_in = C:\DATA\043018_fcr30.hex C:\DATA\SBE19plusV2_7809.xmlcon
# datcnv_skipover = 0
# datcnv_ox_hysteresis_correction = yes
# datcnv_ox_tau_correction = yes
# filter_date = May 08 2018 08:16:56, 7.26.7.114
# filter_in = C:\DATA\043018_fcr30.cnv
# filter_low_pass_tc_A = 0.030
# filter_low_pass_tc_B = 0.150
# filter_low_pass_A_vars = prdM prdE tv290C
# filter_low_pass_B_vars = depFM dz/dtM sbeox0Mg/L sbeox0PS specc c0uS/cm flECO-AFL ph orp par/sat/log turbWETntu0
# alignctd_date = May 08 2018 08:17:15, 7.26.7.114
# alignctd_in = C:\DATA\043018_fcr30.cnv
# alignctd_adv = dz/dtM 1.000, sbeox0Mg/L 1.000, sbeox0PS 1.000, specc 1.000, c0uS/cm 1.000, flECO-AFL 1.000, ph 1.000, orp 1.000, turbWETntu0 1.000                                                                                 
# file_type = ascii
*END*
     -0.544 2.8351e-19     9.5548     98.017      0.426   0.354335     2.7995      9.577  1171.9465 1.2305e+02   833.4493     -0.533     -0.773    16.5847 0.0000e+00
     -0.544 3.1186e-18     9.5565     98.036      0.403   0.335336     2.8656     10.198  1110.2336 1.2666e+02   850.9948     -0.533     -0.773    16.5850 0.0000e+00
     -0.544 3.4304e-17     9.5572     98.046      0.383   0.318184     2.7910     10.560  1161.8884 1.2731e+02   833.3694     -0.533     -0.774    16.5857 0.0000e+00
     -0.544 3.7735e-16     9.5572     98.049      0.405   0.337191     1.8510     10.520  1228.2972 1.2281e+02   620.3426     -0.533     -0.774    16.5871 0.0000e+00
     -0.544 4.1508e-15     9.5576     98.055      0.450   0.374911     0.1209     10.227  1239.1448 1.1359e+02   229.5302     -0.534     -0.774    16.5888 0.0000e+00
     -0.544 4.5659e-14     9.5575     98.056      0.473   0.393777    -0.8146      9.977  1240.1309 1.0362e+02    16.3550     -0.534     -0.774    16.5900 0.0000e+00
     -0.544 5.0225e-13     9.5576     98.058      0.451   0.375066    -0.8851      9.879  1240.2206 9.6456e+01    -2.8245     -0.534     -0.774    16.5910 0.0000e+00
     -0.544 5.5247e-12     9.5581     98.062      0.408   0.338906    -0.8414      9.903  1240.2287 9.1791e+01    -2.3988     -0.533     -0.774    16.5920 0.0000e+00
     -0.544 6.0772e-11     9.5577     98.057      0.405   0.337049    -0.7540     10.050  1240.2294 9.3190e+01     1.3908     -0.534     -0.775    16.5930 0.0000e+00
     -0.544 6.6849e-10     9.5566     98.043      0.424   0.352615    -0.7020     10.266  1240.2292 1.0407e+02     3.5054     -0.533     -0.774    16.5942 0.0000e+00
     -0.544 7.3534e-09     9.5564     98.038      0.406   0.336880    -0.7093     10.449  1240.2257 1.1773e+02     3.6069     -0.533     -0.774    16.5949 0.0000e+00
     -0.544 8.0888e-08     9.5564     98.035      0.406   0.337026    -0.8427     10.573  1240.1873 1.2868e+02     2.3424     -0.534     -0.775    16.5947 0.0000e+00
     -0.544 8.8976e-07     9.5558     98.026      0.426   0.354382    -1.0740     10.627  1239.7658 1.2650e+02    -0.0640     -0.534     -0.774    16.5937 0.0000e+00
     -0.545      0.000     9.5565     98.030      0.429   0.356496    -1.1895     10.596  1235.1288 1.0776e+02    -1.3791     -0.534     -0.775    16.5926 0.0000e+00
     -0.545      0.000     9.5573     98.035      0.665   0.552819    -1.1363     10.491  1184.1221 9.5413e+01    -1.4127     -0.534     -0.775    16.5907 0.0000e+00
     -0.545      0.001     9.5586     98.036      3.512   2.918349    -0.4312     10.055   623.0483 9.3797e+01    -0.6227     -0.534     -0.775    16.5897 0.0000e+00
     -0.545      0.008     9.5686     98.048     13.502  11.199082     0.8752      9.024    89.8157 9.0897e+01     0.8182     -0.534     -0.774    16.5877 0.0000e+00
     -0.545      0.028     9.5961     98.065     26.439  21.872480     1.5902      7.967   375.4351 8.9001e+01     1.6044     -0.534     -0.775    16.5878 0.0000e+00
     -0.545      0.071     9.6342     98.079     32.916  27.133983     1.6524      7.581   514.7674 9.2991e+01     1.6811     -0.533     -0.774    16.5843 0.0000e+00
     -0.540      0.139     9.6676     98.086     34.218  28.102086     1.6454      7.662   330.2161 1.0148e+02     1.7146     -0.535     -0.776    16.5865 0.0000e+00
     -0.519      0.219     9.6972     98.128     34.648  28.370679     1.5339      7.768   308.7885 1.2792e+02     1.9787     -0.520     -0.756    16.5756 0.0000e+00
     -0.460      0.295     9.7344     98.298     34.705  28.349449     1.3331      7.792   306.7957 3.3354e+02     2.4327     -0.469     -0.681    16.4289 0.0000e+00
     -0.352      0.355     9.7854     98.663     34.771  28.353317     1.2211      7.753   307.0677 7.1209e+02     2.6570     -0.362     -0.524    16.2036 0.0000e+00
     -0.209      0.390     9.8549     99.253     34.893  28.417382     1.1910      7.674   307.6889 7.5009e+02     2.6470     -0.197     -0.286    16.0511 0.0000e+00
     -0.078      0.391     9.9449    100.080     35.013  28.488997     0.9409      7.588   308.5422 3.7577e+02     2.3107     -0.061     -0.089    15.9319 0.0000e+00
      0.024      0.360    10.0472    101.059     35.073  28.520675     0.4768      7.510   309.4684 1.2334e+02     1.7040      0.026      0.037    15.8289 0.0000e+00
      0.107      0.312    10.1507    102.064     35.040  28.482864     0.2201      7.439   310.8002 8.1773e+01     1.3855      0.111      0.162    15.7632 0.0000e+00
      0.172      0.270    10.2517    103.046     35.045  28.476314     0.1993      7.367   312.1697 7.3306e+01     1.2965      0.177      0.256    15.7114 0.0000e+00
      0.216      0.242    10.3452    103.970     35.164  28.568469     0.2170      7.297   312.9487 7.0601e+01     1.2082      0.217      0.313    15.6750 0.0000e+00
      0.253      0.223    10.4230    104.804     35.238  28.644588     0.2405      7.237   313.5935 6.9852e+01     1.2033      0.240      0.347    15.6520 0.0000e+00
      0.311      0.204    10.4837    105.517     35.187  28.634666     0.2543      7.192   314.2018 7.2473e+01     1.2371      0.292      0.423    15.6403 0.0000e+00
      0.390      0.183    10.5306    106.072     35.005  28.512037     0.2634      7.158   314.5383 7.8166e+01     1.2806      0.394      0.572    15.6250 0.0000e+00
      0.451      0.157    10.5651    106.410     34.754  28.304950     0.2778      7.130   314.8231 8.8455e+01     1.3022      0.452      0.656    15.6017 0.0000e+00
      0.485      0.124    10.5598    106.209     34.635  28.162813     0.2996      7.107   315.0643 1.0934e+02     1.2852      0.479      0.694    15.6310 0.0000e+00
      0.503      0.084    10.4982    105.347     34.683  28.126925     0.3157      7.087   315.3028 1.4789e+02     1.2882      0.499      0.724    15.6902 0.0000e+00
      0.508      0.049    10.4101    104.219     34.774  28.124942     0.3253      7.069   315.5562 2.1914e+02     1.3087      0.500      0.725    15.7345 0.0000e+00
      0.506      0.025    10.2954    102.885     34.864  28.138738     0.3324      7.056   315.8050 3.1017e+02     1.3186      0.497      0.720    15.7456 0.0000e+00
      0.506      0.011    10.1354    101.172     34.944  28.166667     0.3286      7.051   315.9885 4.2696e+02     1.3163      0.494      0.717    15.6687 0.0000e+00
      0.511      0.002     9.9332     99.098     35.018  28.208581     0.3253      7.053   316.1405 5.4157e+02     1.3115      0.501      0.727    15.5419 0.0000e+00
      0.517     -0.003     9.7039     96.786     35.098  28.264503     0.3295      7.056   316.4378 5.7655e+02     1.3221      0.509      0.738    15.4270 0.0000e+00
      0.517     -0.004     9.4824     94.569     35.188  28.334797     0.3240      7.057   316.8300 6.0649e+02     1.3222      0.510      0.740    15.3385 0.0000e+00
      0.510     -0.004     9.3009     92.763     35.297  28.423490     0.3127      7.056   317.1829 5.4683e+02     1.2819      0.502      0.728    15.2897 0.0000e+00
      0.501     -0.006     9.1635     91.403     35.323  28.447871     0.3134      7.055   317.3489 3.1233e+02     1.2619      0.487      0.706    15.2691 0.0000e+00
      0.499     -0.008     9.0609     90.400     35.223  28.375583     0.3230      7.052   317.2888 1.6140e+02     1.2943      0.484      0.702    15.2590 0.0000e+00
      0.505     -0.007     8.9895     89.720     35.129  28.311480     0.3284      7.050   317.3172 1.4376e+02     1.3383      0.498      0.722    15.2555 0.0000e+00
      0.508     -0.003     8.9472     89.316     35.116  28.307836     0.3226      7.052   317.5193 1.3573e+02     1.3362      0.504      0.730    15.2605 0.0000e+00
      0.502      0.000     8.9183     89.025     35.147  28.331531     0.3174      7.057   317.4956 1.3264e+02     1.2987      0.493      0.714    15.2638 0.0000e+00
      0.496     -0.001     8.8824     88.655     35.168  28.343972     0.3205      7.061   317.3753 1.4004e+02     1.2819      0.483      0.700    15.2721 0.0000e+00
      0.497     -0.007     8.8279     88.097     35.158  28.331249     0.3232      7.064   317.5265 1.7189e+02     1.2851      0.486      0.705    15.2967 0.0000e+00
      0.503     -0.014     8.7530     87.336     35.132  28.304704     0.3231      7.069   317.6889 2.4780e+02     1.2768      0.495      0.718    15.3081 0.0000e+00
      0.506     -0.021     8.6730     86.522     35.105  28.277018     0.3191      7.074   317.7046 3.9269e+02     1.2426      0.500      0.726    15.3009 0.0000e+00
      0.499     -0.031     8.6048     85.827     35.079  28.250484     0.3206      7.078   317.7156 6.6832e+02     1.2376      0.492      0.714    15.2938 0.0000e+00
      0.484     -0.042     8.5497     85.266     35.069  28.237889     0.3328      7.083   317.6511 7.9390e+02     1.2774      0.474      0.687    15.2883 0.0000e+00
      0.468     -0.052     8.5026     84.791     35.089  28.251724     0.3374      7.087   317.5267 5.8766e+02     1.2967      0.459      0.665    15.2806 0.0000e+00
      0.453     -0.058     8.4580     84.342     35.139  28.290749     0.3306      7.091   317.4161 4.2315e+02     1.2886      0.445      0.646    15.2714 0.0000e+00
      0.435     -0.059     8.4044     83.804     35.188  28.328734     0.3233      7.094   317.2604 3.6366e+02     1.3009      0.426      0.618    15.2629 0.0000e+00
      0.420     -0.058     8.3399     83.159     35.190  28.330003     0.3237      7.097   317.0204 3.7357e+02     1.3239      0.411      0.596    15.2565 0.0000e+00
      0.406     -0.058     8.2782     82.542     35.161  28.306091     0.3261      7.102   316.7519 4.6309e+02     1.2914      0.398      0.577    15.2537 0.0000e+00
      0.394     -0.058     8.2290     82.051     35.146  28.293621     0.3244      7.107   316.5085 4.7267e+02     1.2434      0.386      0.559    15.2519 0.0000e+00
      0.380     -0.058     8.1988     81.748     35.162  28.306217     0.3215      7.111   316.3149 4.0175e+02     1.2628      0.374      0.542    15.2496 0.0000e+00
      0.365     -0.059     8.1964     81.724     35.193  28.331388     0.3193      7.113   316.2173 3.4809e+02     1.2815      0.358      0.519    15.2487 0.0000e+00
      0.348     -0.060     8.2207     81.969     35.208  28.343973     0.3253      7.116   316.1894 5.3931e+02     1.1948      0.341      0.494    15.2489 0.0000e+00
      0.332     -0.063     8.2594     82.357     35.191  28.331376     0.3376      7.119   316.1491 7.8621e+02     1.0689      0.324      0.470    15.2479 0.0000e+00
      0.318     -0.066     8.3007     82.772     35.159  28.306081     0.3391      7.121   316.1608 7.2682e+02     1.0416      0.311      0.451    15.2470 0.0000e+00
      0.303     -0.069     8.3374     83.144     35.139  28.292132     0.3262      7.122   316.1588 6.1141e+02     1.0784      0.299      0.434    15.2468 0.0000e+00
      0.284     -0.072     8.3647     83.424     35.131  28.289729     0.3196      7.126   316.0391 5.9829e+02     1.0865      0.280      0.406    15.2482 0.0000e+00
      0.263     -0.076     8.3840     83.627     35.110  28.277029     0.3234      7.131   316.0036 6.0733e+02     1.1087      0.258      0.375    15.2501 0.0000e+00
      0.242     -0.077     8.3975     83.776     35.089  28.265587     0.3260      7.134   316.0732 7.8486e+02     1.1952      0.238      0.345    15.2509 0.0000e+00
