* Sea-Bird SBE19plus  Data File:
* FileName = C:\DATA\043018_fcr_0009.hex
* Software version 2.6.3.104 SB_Terminal.dll
* Temperature SN = 7809
* Conductivity SN = 7809
* System UpLoad Time = May 01 2018 12:00:05
* <ApplicationData>
* <Seaterm232>
* <SoftwareVersion>2.6.3.104</SoftwareVersion>
* <BuildDate>30-Jun-2017</BuildDate>
* </Seaterm232>
* </ApplicationData>
* cast   9 30 Apr 2018 19:59:28 samples 9074 to 10280, avg = 1, stop = mag switch
# nquan = 15
# nvalues = 831                         
# units = specified
# name 0 = depFM: Depth [fresh water, m]
# name 1 = dz/dtM: Descent Rate [m/s]
# name 2 = sbeox0Mg/L: Oxygen, SBE 43 [mg/l]
# name 3 = sbeox0PS: Oxygen, SBE 43 [% saturation]
# name 4 = specc: Specific Conductance [uS/cm]
# name 5 = c0uS/cm: Conductivity [uS/cm]
# name 6 = flECO-AFL: Fluorescence, WET Labs ECO-AFL/FL [mg/m^3]
# name 7 = ph: pH
# name 8 = orp: Oxidation Reduction Potential [mV]
# name 9 = par/sat/log: PAR/Logarithmic, Satlantic
# name 10 = turbWETntu0: Turbidity, WET Labs ECO [NTU]
# name 11 = prdM: Pressure, Strain Gauge [db]
# name 12 = prdE: Pressure, Strain Gauge [psi]
# name 13 = tv290C: Temperature [ITS-90, deg C]
# name 14 = flag:  0.000e+00
# span 0 =     -0.538,      3.530       
# span 1 =     -0.060,      0.166       
# span 2 =     6.8748,    10.5885       
# span 3 =     67.872,    101.244       
# span 4 =      0.680,     36.777       
# span 5 =   0.607062,  28.888434       
# span 6 =    -1.1800,     2.0648       
# span 7 =      1.549,     11.605       
# span 8 =  -708.7942,  1211.6495       
# span 9 = 7.3670e+01, 1.6967e+03       
# span 10 =    -6.0949,   851.0808      
# span 11 =     -0.527,      3.462      
# span 12 =     -0.765,      5.021      
# span 13 =    10.9013,    19.7276      
# span 14 = 0.0000e+00, 0.0000e+00      
# interval = seconds: 0.25
# start_time = Apr 30 2018 19:59:28 [Instrument's time stamp, header]
# bad_flag = -9.990e-29
# <Sensors count="9" >
#   <sensor Channel="1" >
#     <!-- Count, Temperature -->
#     <TemperatureSensor SensorID="58" >
#       <SerialNumber>7809</SerialNumber>
#       <CalibrationDate>09-Mar-18</CalibrationDate>
#       <A0>1.21093245e-003</A0>
#       <A1>2.84356597e-004</A1>
#       <A2>-1.94507398e-006</A2>
#       <A3>2.12806664e-007</A3>
#       <Slope>1.00000000</Slope>
#       <Offset>0.0000</Offset>
#     </TemperatureSensor>
#   </sensor>
#   <sensor Channel="2" >
#     <!-- Frequency 0, Conductivity -->
#     <ConductivitySensor SensorID="3" >
#       <SerialNumber>7809</SerialNumber>
#       <CalibrationDate>09-Mar-18</CalibrationDate>
#       <UseG_J>1</UseG_J>
#       <!-- Cell const and series R are applicable only for wide range sensors. -->
#       <SeriesR>0.0000</SeriesR>
#       <CellConst>2000.0000</CellConst>
#       <ConductivityType>0</ConductivityType>
#       <Coefficients equation="0" >
#         <A>0.00000000e+000</A>
#         <B>0.00000000e+000</B>
#         <C>0.00000000e+000</C>
#         <D>0.00000000e+000</D>
#         <M>0.0</M>
#         <CPcor>-9.57000000e-008</CPcor>
#       </Coefficients>
#       <Coefficients equation="1" >
#         <G>-1.00672082e+000</G>
#         <H>1.26906489e-001</H>
#         <I>-1.40584351e-004</I>
#         <J>2.47837121e-005</J>
#         <CPcor>-9.57000000e-008</CPcor>
#         <CTcor>3.2500e-006</CTcor>
#         <!-- WBOTC not applicable unless ConductivityType = 1. -->
#         <WBOTC>0.00000000e+000</WBOTC>
#       </Coefficients>
#       <Slope>1.00000000</Slope>
#       <Offset>0.00000</Offset>
#     </ConductivitySensor>
#   </sensor>
#   <sensor Channel="3" >
#     <!-- Count, Pressure, Strain Gauge -->
#     <PressureSensor SensorID="46" >
#       <SerialNumber>7809</SerialNumber>
#       <CalibrationDate>07-Mar-18</CalibrationDate>
#       <PA0>-4.08176359e-002</PA0>
#       <PA1>4.85188419e-004</PA1>
#       <PA2>-3.51168169e-012</PA2>
#       <PTEMPA0>-5.37806900e+001</PTEMPA0>
#       <PTEMPA1>5.36620721e+001</PTEMPA1>
#       <PTEMPA2>4.87214332e-002</PTEMPA2>
#       <PTCA0>5.25213435e+005</PTCA0>
#       <PTCA1>1.79532409e+000</PTCA1>
#       <PTCA2>-2.84353509e-001</PTCA2>
#       <PTCB0>2.51668750e+001</PTCB0>
#       <PTCB1>3.75000000e-004</PTCB1>
#       <PTCB2>0.00000000e+000</PTCB2>
#       <Offset>0.000000</Offset>
#     </PressureSensor>
#   </sensor>
#   <sensor Channel="4" >
#     <!-- A/D voltage 0, pH -->
#     <pH_Sensor SensorID="43" >
#       <SerialNumber>0363</SerialNumber>
#       <CalibrationDate>16-Mar-18</CalibrationDate>
#       <Slope>4.6194</Slope>
#       <Offset>2.5947</Offset>
#     </pH_Sensor>
#   </sensor>
#   <sensor Channel="5" >
#     <!-- A/D voltage 1, Oxidation Reduction Potential -->
#     <OxidationReductionPotentialSensor SensorID="41" >
#       <SerialNumber>0363</SerialNumber>
#       <CalibrationDate>16-Mar-18</CalibrationDate>
#       <B>2.499480</B>
#       <M>-0.496195</M>
#       <Offset>0.0</Offset>
#     </OxidationReductionPotentialSensor>
#   </sensor>
#   <sensor Channel="6" >
#     <!-- A/D voltage 2, Oxygen, SBE 43 -->
#     <OxygenSensor SensorID="38" >
#       <SerialNumber>0434</SerialNumber>
#       <CalibrationDate>13-Mar-18</CalibrationDate>
#       <Use2007Equation>1</Use2007Equation>
#       <CalibrationCoefficients equation="0" >
#         <!-- Coefficients for Owens-Millard equation. -->
#         <Boc>0.0000</Boc>
#         <Soc>0.0000e+000</Soc>
#         <offset>0.0000</offset>
#         <Pcor>0.00e+000</Pcor>
#         <Tcor>0.0000</Tcor>
#         <Tau>0.0</Tau>
#       </CalibrationCoefficients>
#       <CalibrationCoefficients equation="1" >
#         <!-- Coefficients for Sea-Bird equation - SBE calibration in 2007 and later. -->
#         <Soc>4.5718e-001</Soc>
#         <offset>-0.6113</offset>
#         <A>-4.0649e-003</A>
#         <B> 2.0945e-004</B>
#         <C>-3.3182e-006</C>
#         <D0> 2.5826e+000</D0>
#         <D1> 1.92634e-004</D1>
#         <D2>-4.64803e-002</D2>
#         <E> 3.6000e-002</E>
#         <Tau20> 1.2200</Tau20>
#         <H1>-3.3000e-002</H1>
#         <H2> 5.0000e+003</H2>
#         <H3> 1.4500e+003</H3>
#       </CalibrationCoefficients>
#     </OxygenSensor>
#   </sensor>
#   <sensor Channel="7" >
#     <!-- A/D voltage 3, PAR/Logarithmic, Satlantic -->
#     <PARLog_SatlanticSensor SensorID="76" >
#       <SerialNumber>1122</SerialNumber>
#       <CalibrationDate>22-Jun-2017</CalibrationDate>
#       <a0>9.6090e-001</a0>
#       <a1>8.0780e-001</a1>
#       <Im>1.3589e+000</Im>
#       <Multiplier>1.0000e+000</Multiplier>
#     </PARLog_SatlanticSensor>
#   </sensor>
#   <sensor Channel="8" >
#     <!-- A/D voltage 4, Fluorometer, WET Labs ECO-AFL/FL -->
#     <FluoroWetlabECO_AFL_FL_Sensor SensorID="20" >
#       <SerialNumber>FLNTURT-2496</SerialNumber>
#       <CalibrationDate>25-Jan-2017</CalibrationDate>
#       <ScaleFactor>5.30000000e+001</ScaleFactor>
#       <!-- Dark output -->
#       <Vblank>0.0560</Vblank>
#     </FluoroWetlabECO_AFL_FL_Sensor>
#   </sensor>
#   <sensor Channel="9" >
#     <!-- A/D voltage 5, Turbidity Meter, WET Labs, ECO-NTU -->
#     <TurbidityMeter SensorID="67" >
#       <SerialNumber>FLNTURT-2496</SerialNumber>
#       <CalibrationDate>25-Jan-2017</CalibrationDate>
#       <ScaleFactor>176.000000</ScaleFactor>
#       <!-- Dark output -->
#       <DarkVoltage>0.072000</DarkVoltage>
#     </TurbidityMeter>
#   </sensor>
# </Sensors>
# datcnv_date = May 08 2018 08:16:31, 7.26.7.114 [datcnv_vars = 14]
# datcnv_in = C:\DATA\043018_fcr20.hex C:\DATA\SBE19plusV2_7809.xmlcon
# datcnv_skipover = 0
# datcnv_ox_hysteresis_correction = yes
# datcnv_ox_tau_correction = yes
# filter_date = May 08 2018 08:16:56, 7.26.7.114
# filter_in = C:\DATA\043018_fcr20.cnv
# filter_low_pass_tc_A = 0.030
# filter_low_pass_tc_B = 0.150
# filter_low_pass_A_vars = prdM prdE tv290C
# filter_low_pass_B_vars = depFM dz/dtM sbeox0Mg/L sbeox0PS specc c0uS/cm flECO-AFL ph orp par/sat/log turbWETntu0
# alignctd_date = May 08 2018 08:17:15, 7.26.7.114
# alignctd_in = C:\DATA\043018_fcr20.cnv
# alignctd_adv = dz/dtM 1.000, sbeox0Mg/L 1.000, sbeox0PS 1.000, specc 1.000, c0uS/cm 1.000, flECO-AFL 1.000, ph 1.000, orp 1.000, turbWETntu0 1.000                                                                                 
# file_type = ascii
*END*
     -0.537 -1.400e-10     9.0130     98.478      0.774   0.690768    -0.1801      5.831   221.9959 8.2483e+02    -0.1878     -0.526     -0.763    19.6657 0.0000e+00
     -0.537 -1.540e-09     9.0125     98.475      0.759   0.678190    -0.1807      7.562   -33.3621 7.8948e+02    -0.2005     -0.527     -0.764    19.6661 0.0000e+00
     -0.537 -1.694e-08     9.0113     98.466      0.758   0.677159    -0.1791      9.074  -352.8003 7.9088e+02    -0.2409     -0.527     -0.764    19.6665 0.0000e+00
     -0.537 -1.863e-07     9.0115     98.474      0.760   0.678304    -0.1606      9.685  -474.2318 8.1181e+02    -0.4629     -0.527     -0.765    19.6669 0.0000e+00
     -0.537 -1.863e-07     9.0117     98.483      0.775   0.692025    -0.1229      9.100  -129.7700 7.3668e+02    -0.8694     -0.527     -0.764    19.6675 0.0000e+00
     -0.537 -1.693e-08     9.0097     98.468      0.802   0.716245    -0.1003      7.817   555.8159 5.0459e+02    -1.0984     -0.527     -0.764    19.6686 0.0000e+00
     -0.537 -1.539e-09     9.0073     98.450      0.803   0.717493    -0.1076      6.814  1062.5964 2.7096e+02    -1.0955     -0.526     -0.763    19.6699 0.0000e+00
     -0.537 -1.400e-10     9.0061     98.445      0.791   0.707117    -0.1371      6.432  1211.6495 1.7268e+02    -0.9556     -0.527     -0.764    19.6730 0.0000e+00
     -0.537 -1.272e-11     9.0054     98.445      0.803   0.717607    -0.1722      5.918  1100.8839 1.5183e+02    -0.7192     -0.527     -0.764    19.6771 0.0000e+00
     -0.537 -1.157e-12     9.0056     98.454      0.803   0.717504    -0.1830      5.342   553.1881 1.5372e+02    -0.6187     -0.526     -0.763    19.6808 0.0000e+00
     -0.537 -1.052e-13     9.0067     98.473      0.789   0.705870    -0.1750      5.952    86.5546 1.6624e+02    -0.6557     -0.526     -0.763    19.6853 0.0000e+00
     -0.537 -9.560e-15     9.0072     98.484      0.787   0.703773    -0.1772      7.015   483.5507 1.6818e+02    -0.6780     -0.526     -0.764    19.6896 0.0000e+00
     -0.537 -8.690e-16     9.0071     98.488      0.774   0.692138    -0.1826      6.961  1043.5277 1.5858e+02    -0.6750     -0.526     -0.764    19.6931 0.0000e+00
     -0.537 -7.900e-17     9.0067     98.489      0.774   0.692025    -0.1762      6.527  1002.6475 1.5078e+02    -0.6491     -0.526     -0.764    19.6963 0.0000e+00
     -0.537 -7.180e-18     9.0056     98.480      0.785   0.702400    -0.1730      6.554   625.4459 1.4564e+02    -0.5478     -0.526     -0.764    19.6999 0.0000e+00
     -0.537 -6.530e-19     9.0043     98.470      0.773   0.690755    -0.2082      6.877   225.0929 1.3977e+02     0.3056     -0.527     -0.765    19.7027 0.0000e+00
     -0.537 -5.935e-20     9.0038     98.470      0.758   0.678064    -0.2703      7.729  -212.8942 1.3381e+02     1.8562     -0.526     -0.764    19.7050 0.0000e+00
     -0.536 -5.394e-21     9.0043     98.480      0.756   0.675776    -0.3087      9.009  -119.9469 1.3080e+02     2.6967     -0.525     -0.762    19.7077 0.0000e+00
     -0.536 -4.759e-22     9.0037     98.480      0.741   0.663085    -0.3139     10.081   663.0054 1.3462e+02     2.7477     -0.526     -0.763    19.7100 0.0000e+00
     -0.537 1.1601e-22     9.0018     98.464      0.728   0.651441    -0.3049     10.820   961.1664 1.3867e+02     2.6260     -0.527     -0.764    19.7120 0.0000e+00
     -0.537 1.7625e-21     9.0012     98.462      0.740   0.661826    -0.2742     11.293   487.2271 1.4215e+02     1.4997     -0.526     -0.764    19.7137 0.0000e+00
     -0.537 1.9432e-20     9.0014     98.468      0.740   0.661826    -0.2184     11.518   -83.8745 1.4624e+02    -0.5247     -0.526     -0.764    19.7164 0.0000e+00
     -0.537 2.1376e-19     9.0009     98.464      0.728   0.651439    -0.1823     11.605  -495.1088 1.4094e+02    -1.6477     -0.526     -0.763    19.7204 0.0000e+00
     -0.537 2.3513e-18     9.0004     98.459      0.741   0.663063    -0.1858     11.548  -708.7942 1.2784e+02    -1.7032     -0.526     -0.764    19.7231 0.0000e+00
     -0.537 2.5865e-17     9.0004     98.458      0.755   0.675536    -0.2432     11.095  -611.1021 1.1483e+02    -1.1649     -0.526     -0.764    19.7251 0.0000e+00
     -0.537 2.8451e-16     8.9994     98.447      0.755   0.675423    -0.3337      9.986   -13.5074 1.0266e+02    -0.2357     -0.526     -0.763    19.7268 0.0000e+00
     -0.537 3.1296e-15     8.9977     98.428      0.740   0.661701    -0.3798      8.593   801.0851 9.4203e+01     0.2538     -0.526     -0.764    19.7272 0.0000e+00
     -0.537 3.4426e-14     8.9977     98.427      0.711   0.636449    -0.3778      7.564  1177.9933 8.9498e+01     0.3901     -0.527     -0.764    19.7275 0.0000e+00
     -0.537 3.7869e-13     8.9989     98.438      0.697   0.623759    -0.3192      7.008  1175.7368 8.6470e+01     1.6871     -0.526     -0.763    19.7276 0.0000e+00
     -0.537 4.1656e-12     8.9999     98.447      0.710   0.635079    -0.2224      6.714  1111.6778 8.7343e+01     4.0940     -0.526     -0.764    19.7273 0.0000e+00
     -0.537 4.5821e-11     9.0004     98.452      0.723   0.646504    -0.1717      6.554  1052.8859 9.3780e+01     5.3817     -0.527     -0.765    19.7267 0.0000e+00
     -0.537 5.0403e-10     9.0007     98.454      0.710   0.635068    -0.1192      6.465  1074.1336 1.0185e+02     5.1414     -0.526     -0.764    19.7262 0.0000e+00
     -0.537 5.5443e-09     9.0018     98.460      0.697   0.623633     0.4117      6.417  1108.9146 1.0856e+02     1.6778     -0.527     -0.764    19.7257 0.0000e+00
     -0.537 6.0988e-08     9.0037     98.469      0.710   0.635067     1.3766      6.386  1120.8311 1.1714e+02    -4.4536     -0.527     -0.764    19.7247 0.0000e+00
     -0.537 6.7087e-07     9.0058     98.480      0.723   0.646492     1.8976      6.361  1132.6062 1.2437e+02    -6.0949     -0.526     -0.763    19.7242 0.0000e+00
     -0.538      0.000     9.0069     98.486      0.711   0.634943     1.9509      6.345  1113.5375 1.2518e+02    13.0845     -0.527     -0.765    19.7236 0.0000e+00
     -0.538      0.000     9.0061     98.476      0.696   0.622259     1.9934      6.335  1111.5656 1.2359e+02   227.1368     -0.527     -0.765    19.7223 0.0000e+00
     -0.538      0.001     9.0050     98.458      0.694   0.619953     2.0438      6.325  1117.5405 1.2344e+02   619.5297     -0.527     -0.765    19.7132 0.0000e+00
     -0.537      0.005     9.0090     98.452      0.680   0.607062     2.0648      6.316  1019.5521 1.2274e+02   833.3698     -0.527     -0.764    19.7087 0.0000e+00
     -0.537      0.013     9.0455     98.450      0.814   0.720042     2.0623      6.293   818.1626 1.1969e+02   851.0808     -0.527     -0.764    19.7028 0.0000e+00
     -0.537      0.023     9.1495     98.429      1.928   1.668912     1.9868      6.208   577.5711 1.2775e+02   833.6713     -0.527     -0.765    19.7079 0.0000e+00
     -0.534      0.033     9.2966     98.407      5.165   4.406305     1.1703      5.501    82.2579 1.7006e+02   622.2937     -0.527     -0.765    19.6985 0.0000e+00
     -0.521      0.041     9.4213     98.394     10.524   8.892162    -0.3199      3.288  -274.0476 2.4663e+02   234.4494     -0.516     -0.748    19.7136 0.0000e+00
     -0.501      0.047     9.5023     98.389     16.355  13.723568    -1.1345      1.549   194.3650 3.2531e+02    22.9109     -0.488     -0.708    19.6542 0.0000e+00
     -0.483      0.052     9.5557     98.389     23.285  19.426137    -1.1800      2.612   772.5540 3.6886e+02     3.6556     -0.470     -0.682    19.0090 0.0000e+00
     -0.473      0.052     9.5933     98.386     30.890  25.669628    -0.9247      4.485   937.6147 3.0913e+02     1.5755     -0.464     -0.673    18.0144 0.0000e+00
     -0.464      0.049     9.6219     98.381     34.656  28.715218    -0.4646      5.517  1032.8715 1.7729e+02     0.8124     -0.456     -0.660    17.3547 0.0000e+00
     -0.452      0.047     9.6468     98.378     34.967  28.888434    -0.2120      6.202   932.0055 1.2189e+02     0.4713     -0.443     -0.643    16.9910 0.0000e+00
     -0.438      0.052     9.6699     98.375     34.854  28.716398    -0.1874      6.751   569.1530 1.7894e+02     0.5031     -0.430     -0.623    16.7372 0.0000e+00
     -0.427      0.064     9.6900     98.371     34.724  28.540101    -0.2029      7.183   335.4463 3.1635e+02     1.1047     -0.418     -0.606    16.5572 0.0000e+00
     -0.416      0.081     9.7095     98.381     34.639  28.407797    -0.2344      7.467   304.5808 4.2290e+02     2.2216     -0.411     -0.596    16.4233 0.0000e+00
     -0.398      0.104     9.7341     98.440     34.614  28.323165    -0.2559      7.621   301.3595 4.2405e+02     2.8689     -0.394     -0.572    16.3037 0.0000e+00
     -0.369      0.129     9.7673     98.574     34.641  28.278751    -0.2417      7.689   303.0363 3.6495e+02     2.9191     -0.363     -0.527    16.1843 0.0000e+00
     -0.331      0.151     9.8080     98.802     34.681  28.251707    -0.1179      7.694   304.2049 2.6731e+02     2.4925     -0.330     -0.478    16.0855 0.0000e+00
     -0.283      0.165     9.8561     99.141     34.738  28.250107     0.0829      7.646   305.2509 2.0481e+02     1.7095     -0.282     -0.410    16.0022 0.0000e+00
     -0.227      0.166     9.9091     99.559     34.795  28.259357     0.1917      7.576   305.5306 2.0094e+02     1.2940     -0.222     -0.321    15.9133 0.0000e+00
     -0.174      0.159     9.9577     99.959     34.803  28.236499     0.2052      7.521   304.9193 2.0511e+02     1.2843     -0.166     -0.239    15.8099 0.0000e+00
     -0.134      0.148     9.9954    100.274     34.817  28.227704     0.2090      7.486   305.0009 2.0636e+02     1.3171     -0.127     -0.185    15.7189 0.0000e+00
     -0.107      0.136    10.0074    100.352     34.899  28.279983     0.2110      7.461   305.7429 2.0526e+02     1.3245     -0.103     -0.150    15.6528 0.0000e+00
     -0.084      0.122     9.9730     99.974     35.012  28.360575     0.2104      7.438   306.3197 2.0964e+02     1.3124     -0.084     -0.122    15.6003 0.0000e+00
     -0.057      0.111     9.8830     99.047     35.120  28.440121     0.2109      7.408   306.8122 2.0964e+02     1.2934     -0.059     -0.086    15.5582 0.0000e+00
     -0.023      0.103     9.7233     97.423     35.179  28.479748     0.2082      7.352   307.3964 1.9543e+02     1.2772     -0.022     -0.031    15.5285 0.0000e+00
      0.010      0.096     9.5072     95.226     35.167  28.458681     0.2147      7.278   307.8765 1.9808e+02     1.2994      0.015      0.021    15.5131 0.0000e+00
      0.034      0.090     9.2790     92.895     35.163  28.439399     0.2243      7.228   308.0572 3.6549e+02     1.3176      0.037      0.053    15.4955 0.0000e+00
      0.050      0.081     9.0583     90.636     35.261  28.500597     0.2143      7.209   308.2052 5.1653e+02     1.2843      0.049      0.071    15.4838 0.0000e+00
      0.064      0.070     8.8568     88.584     35.433  28.627082     0.2128      7.205   308.2892 3.3896e+02     1.2929      0.061      0.087    15.4775 0.0000e+00
      0.082      0.060     8.6934     86.928     35.532  28.698683     0.2250      7.205   308.1257 1.4278e+02     1.3304      0.080      0.116    15.4601 0.0000e+00
      0.101      0.052     8.5670     85.635     35.508  28.667785     0.2235      7.206   308.2068 1.1749e+02     1.3099      0.102      0.148    15.4371 0.0000e+00
