* Sea-Bird SBE19plus  Data File:
* FileName = C:\DATA\043018_fcr_0007.hex
* Software version 2.6.3.104 SB_Terminal.dll
* Temperature SN = 7809
* Conductivity SN = 7809
* System UpLoad Time = May 01 2018 11:59:12
* <ApplicationData>
* <Seaterm232>
* <SoftwareVersion>2.6.3.104</SoftwareVersion>
* <BuildDate>30-Jun-2017</BuildDate>
* </Seaterm232>
* </ApplicationData>
* cast   7 30 Apr 2018 14:39:40 samples 7207 to 8289, avg = 1, stop = mag switch
# nquan = 15
# nvalues = 971                         
# units = specified
# name 0 = depFM: Depth [fresh water, m]
# name 1 = dz/dtM: Descent Rate [m/s]
# name 2 = sbeox0Mg/L: Oxygen, SBE 43 [mg/l]
# name 3 = sbeox0PS: Oxygen, SBE 43 [% saturation]
# name 4 = specc: Specific Conductance [uS/cm]
# name 5 = c0uS/cm: Conductivity [uS/cm]
# name 6 = flECO-AFL: Fluorescence, WET Labs ECO-AFL/FL [mg/m^3]
# name 7 = ph: pH
# name 8 = orp: Oxidation Reduction Potential [mV]
# name 9 = par/sat/log: PAR/Logarithmic, Satlantic
# name 10 = turbWETntu0: Turbidity, WET Labs ECO [NTU]
# name 11 = prdM: Pressure, Strain Gauge [db]
# name 12 = prdE: Pressure, Strain Gauge [psi]
# name 13 = tv290C: Temperature [ITS-90, deg C]
# name 14 = flag:  0.000e+00
# span 0 =     -0.505,      9.786       
# span 1 =     -0.118,      4.628       
# span 2 =     6.3448,    10.3520       
# span 3 =     61.762,    100.786       
# span 4 =      0.373,     38.569       
# span 5 =   0.288892,  27.836904       
# span 6 =    -0.6159,     7.4588       
# span 7 =     -2.419,     10.852       
# span 8 =  -819.3642,  1240.2295       
# span 9 = 3.0785e-01, 2.8919e+03       
# span 10 =    -0.5702,   113.1106      
# span 11 =     -0.496,      9.597      
# span 12 =     -0.719,     13.919      
# span 13 =     8.1341,    14.2246      
# span 14 = 0.0000e+00, 0.0000e+00      
# interval = seconds: 0.25
# start_time = Apr 30 2018 14:39:40 [Instrument's time stamp, header]
# bad_flag = -9.990e-29
# <Sensors count="9" >
#   <sensor Channel="1" >
#     <!-- Count, Temperature -->
#     <TemperatureSensor SensorID="58" >
#       <SerialNumber>7809</SerialNumber>
#       <CalibrationDate>09-Mar-18</CalibrationDate>
#       <A0>1.21093245e-003</A0>
#       <A1>2.84356597e-004</A1>
#       <A2>-1.94507398e-006</A2>
#       <A3>2.12806664e-007</A3>
#       <Slope>1.00000000</Slope>
#       <Offset>0.0000</Offset>
#     </TemperatureSensor>
#   </sensor>
#   <sensor Channel="2" >
#     <!-- Frequency 0, Conductivity -->
#     <ConductivitySensor SensorID="3" >
#       <SerialNumber>7809</SerialNumber>
#       <CalibrationDate>09-Mar-18</CalibrationDate>
#       <UseG_J>1</UseG_J>
#       <!-- Cell const and series R are applicable only for wide range sensors. -->
#       <SeriesR>0.0000</SeriesR>
#       <CellConst>2000.0000</CellConst>
#       <ConductivityType>0</ConductivityType>
#       <Coefficients equation="0" >
#         <A>0.00000000e+000</A>
#         <B>0.00000000e+000</B>
#         <C>0.00000000e+000</C>
#         <D>0.00000000e+000</D>
#         <M>0.0</M>
#         <CPcor>-9.57000000e-008</CPcor>
#       </Coefficients>
#       <Coefficients equation="1" >
#         <G>-1.00672082e+000</G>
#         <H>1.26906489e-001</H>
#         <I>-1.40584351e-004</I>
#         <J>2.47837121e-005</J>
#         <CPcor>-9.57000000e-008</CPcor>
#         <CTcor>3.2500e-006</CTcor>
#         <!-- WBOTC not applicable unless ConductivityType = 1. -->
#         <WBOTC>0.00000000e+000</WBOTC>
#       </Coefficients>
#       <Slope>1.00000000</Slope>
#       <Offset>0.00000</Offset>
#     </ConductivitySensor>
#   </sensor>
#   <sensor Channel="3" >
#     <!-- Count, Pressure, Strain Gauge -->
#     <PressureSensor SensorID="46" >
#       <SerialNumber>7809</SerialNumber>
#       <CalibrationDate>07-Mar-18</CalibrationDate>
#       <PA0>-4.08176359e-002</PA0>
#       <PA1>4.85188419e-004</PA1>
#       <PA2>-3.51168169e-012</PA2>
#       <PTEMPA0>-5.37806900e+001</PTEMPA0>
#       <PTEMPA1>5.36620721e+001</PTEMPA1>
#       <PTEMPA2>4.87214332e-002</PTEMPA2>
#       <PTCA0>5.25213435e+005</PTCA0>
#       <PTCA1>1.79532409e+000</PTCA1>
#       <PTCA2>-2.84353509e-001</PTCA2>
#       <PTCB0>2.51668750e+001</PTCB0>
#       <PTCB1>3.75000000e-004</PTCB1>
#       <PTCB2>0.00000000e+000</PTCB2>
#       <Offset>0.000000</Offset>
#     </PressureSensor>
#   </sensor>
#   <sensor Channel="4" >
#     <!-- A/D voltage 0, pH -->
#     <pH_Sensor SensorID="43" >
#       <SerialNumber>0363</SerialNumber>
#       <CalibrationDate>16-Mar-18</CalibrationDate>
#       <Slope>4.6194</Slope>
#       <Offset>2.5947</Offset>
#     </pH_Sensor>
#   </sensor>
#   <sensor Channel="5" >
#     <!-- A/D voltage 1, Oxidation Reduction Potential -->
#     <OxidationReductionPotentialSensor SensorID="41" >
#       <SerialNumber>0363</SerialNumber>
#       <CalibrationDate>16-Mar-18</CalibrationDate>
#       <B>2.499480</B>
#       <M>-0.496195</M>
#       <Offset>0.0</Offset>
#     </OxidationReductionPotentialSensor>
#   </sensor>
#   <sensor Channel="6" >
#     <!-- A/D voltage 2, Oxygen, SBE 43 -->
#     <OxygenSensor SensorID="38" >
#       <SerialNumber>0434</SerialNumber>
#       <CalibrationDate>13-Mar-18</CalibrationDate>
#       <Use2007Equation>1</Use2007Equation>
#       <CalibrationCoefficients equation="0" >
#         <!-- Coefficients for Owens-Millard equation. -->
#         <Boc>0.0000</Boc>
#         <Soc>0.0000e+000</Soc>
#         <offset>0.0000</offset>
#         <Pcor>0.00e+000</Pcor>
#         <Tcor>0.0000</Tcor>
#         <Tau>0.0</Tau>
#       </CalibrationCoefficients>
#       <CalibrationCoefficients equation="1" >
#         <!-- Coefficients for Sea-Bird equation - SBE calibration in 2007 and later. -->
#         <Soc>4.5718e-001</Soc>
#         <offset>-0.6113</offset>
#         <A>-4.0649e-003</A>
#         <B> 2.0945e-004</B>
#         <C>-3.3182e-006</C>
#         <D0> 2.5826e+000</D0>
#         <D1> 1.92634e-004</D1>
#         <D2>-4.64803e-002</D2>
#         <E> 3.6000e-002</E>
#         <Tau20> 1.2200</Tau20>
#         <H1>-3.3000e-002</H1>
#         <H2> 5.0000e+003</H2>
#         <H3> 1.4500e+003</H3>
#       </CalibrationCoefficients>
#     </OxygenSensor>
#   </sensor>
#   <sensor Channel="7" >
#     <!-- A/D voltage 3, PAR/Logarithmic, Satlantic -->
#     <PARLog_SatlanticSensor SensorID="76" >
#       <SerialNumber>1122</SerialNumber>
#       <CalibrationDate>22-Jun-2017</CalibrationDate>
#       <a0>9.6090e-001</a0>
#       <a1>8.0780e-001</a1>
#       <Im>1.3589e+000</Im>
#       <Multiplier>1.0000e+000</Multiplier>
#     </PARLog_SatlanticSensor>
#   </sensor>
#   <sensor Channel="8" >
#     <!-- A/D voltage 4, Fluorometer, WET Labs ECO-AFL/FL -->
#     <FluoroWetlabECO_AFL_FL_Sensor SensorID="20" >
#       <SerialNumber>FLNTURT-2496</SerialNumber>
#       <CalibrationDate>25-Jan-2017</CalibrationDate>
#       <ScaleFactor>5.30000000e+001</ScaleFactor>
#       <!-- Dark output -->
#       <Vblank>0.0560</Vblank>
#     </FluoroWetlabECO_AFL_FL_Sensor>
#   </sensor>
#   <sensor Channel="9" >
#     <!-- A/D voltage 5, Turbidity Meter, WET Labs, ECO-NTU -->
#     <TurbidityMeter SensorID="67" >
#       <SerialNumber>FLNTURT-2496</SerialNumber>
#       <CalibrationDate>25-Jan-2017</CalibrationDate>
#       <ScaleFactor>176.000000</ScaleFactor>
#       <!-- Dark output -->
#       <DarkVoltage>0.072000</DarkVoltage>
#     </TurbidityMeter>
#   </sensor>
# </Sensors>
# datcnv_date = May 08 2018 08:16:33, 7.26.7.114 [datcnv_vars = 14]
# datcnv_in = C:\DATA\043018_fcr50.hex C:\DATA\SBE19plusV2_7809.xmlcon
# datcnv_skipover = 0
# datcnv_ox_hysteresis_correction = yes
# datcnv_ox_tau_correction = yes
# filter_date = May 08 2018 08:16:56, 7.26.7.114
# filter_in = C:\DATA\043018_fcr50.cnv
# filter_low_pass_tc_A = 0.030
# filter_low_pass_tc_B = 0.150
# filter_low_pass_A_vars = prdM prdE tv290C
# filter_low_pass_B_vars = depFM dz/dtM sbeox0Mg/L sbeox0PS specc c0uS/cm flECO-AFL ph orp par/sat/log turbWETntu0
# alignctd_date = May 08 2018 08:17:15, 7.26.7.114
# alignctd_in = C:\DATA\043018_fcr50.cnv
# alignctd_adv = dz/dtM 1.000, sbeox0Mg/L 1.000, sbeox0PS 1.000, specc 1.000, c0uS/cm 1.000, flECO-AFL 1.000, ph 1.000, orp 1.000, turbWETntu0 1.000                                                                                 
# file_type = ascii
*END*
     -0.505 4.9502e-42    10.1734     98.108      0.487   0.376989    -0.1895     -0.570   903.7597 8.5411e+01    -0.2186     -0.495     -0.718    13.7191 0.0000e+00
     -0.505 5.4453e-41    10.1729     98.103      0.509   0.394125    -0.1973     -2.419   897.0877 8.9968e+01    -0.2324     -0.496     -0.719    13.7192 0.0000e+00
     -0.505 5.9898e-40    10.1701     98.076      0.487   0.376803    -0.1982     -2.120   936.2422 1.0231e+02    -0.1982     -0.495     -0.718    13.7191 0.0000e+00
     -0.505 6.5888e-39    10.1681     98.056      0.462   0.357792    -0.1994      0.310   586.6441 1.1314e+02    -0.2017     -0.495     -0.718    13.7191 0.0000e+00
     -0.505 7.2476e-38    10.1671     98.046      0.458   0.354504    -0.1940      4.240  -257.3254 1.2074e+02    -0.2442     -0.495     -0.718    13.7190 0.0000e+00
     -0.505 7.9724e-37    10.1667     98.041      0.436   0.337039    -0.1889      7.410  -737.9299 1.2967e+02    -0.2539     -0.495     -0.718    13.7190 0.0000e+00
     -0.505 8.7696e-36    10.1680     98.054      0.436   0.336874    -0.1923      9.116  -760.9315 1.4098e+02    -0.2280     -0.495     -0.718    13.7193 0.0000e+00
     -0.505 9.6466e-35    10.1682     98.057      0.456   0.352505    -0.1884     10.076  -785.1223 1.5405e+02    -0.2055     -0.496     -0.719    13.7190 0.0000e+00
     -0.505 1.0611e-33    10.1682     98.057      0.434   0.335795    -0.1795     10.601  -819.3642 2.0679e+02    -0.1951     -0.495     -0.718    13.7181 0.0000e+00
     -0.505 1.1672e-32    10.1707     98.081      0.420   0.325074    -0.1769     10.816  -799.6443 7.3449e+02    -0.1931     -0.495     -0.718    13.7179 0.0000e+00
     -0.505 1.2840e-31    10.1739     98.111      0.452   0.349705    -0.1838     10.852  -719.8015 1.6856e+03    -0.1818     -0.495     -0.717    13.7182 0.0000e+00
     -0.505 1.4124e-30    10.1761     98.127      0.491   0.379945    -0.1898     10.808  -566.3105 2.1691e+03    -0.1807     -0.495     -0.718    13.7184 0.0000e+00
     -0.505 1.5536e-29    10.1763     98.123      0.483   0.373642    -0.1854     10.719  -365.5962 2.0617e+03    -0.2104     -0.495     -0.718    13.7189 0.0000e+00
     -0.505 1.7090e-28    10.1757     98.109      0.435   0.336908    -0.1763     10.598  -246.0733 1.4746e+03    -0.2054     -0.496     -0.719    13.7191 0.0000e+00
     -0.505 1.8798e-27    10.1762     98.107      0.408   0.316273    -0.1711     10.467  -213.9539 6.0989e+02    -0.1815     -0.495     -0.718    13.7183 0.0000e+00
     -0.505 2.0678e-26    10.1770     98.108      0.406   0.314397    -0.1778     10.319  -204.3018 1.6329e+02    -0.1955     -0.494     -0.717    13.7165 0.0000e+00
     -0.505 2.2746e-25    10.1755     98.089      0.406   0.314227    -0.1843     10.135   123.2404 1.0468e+02    -0.1924     -0.495     -0.718    13.7133 0.0000e+00
     -0.505 2.5021e-24    10.1720     98.051      0.406   0.314211    -0.1751      9.904   809.7258 8.9175e+01    -0.1744     -0.495     -0.718    13.7090 0.0000e+00
     -0.505 2.7523e-23    10.1680     98.010      0.406   0.314209    -0.1674      9.727  1201.0928 8.2005e+01    -0.1912     -0.495     -0.718    13.7056 0.0000e+00
     -0.505 3.0275e-22    10.1669     97.998      0.406   0.314200    -0.1746      9.713  1236.6716 7.8177e+01    -0.2127     -0.495     -0.718    13.7032 0.0000e+00
     -0.505 3.3303e-21    10.1692     98.018      0.406   0.314096    -0.1800      9.778  1239.9061 7.7357e+01    -0.2206     -0.495     -0.718    13.7009 0.0000e+00
     -0.505 3.6633e-20    10.1717     98.043      0.404   0.312953    -0.1861      9.842  1240.2001 8.0042e+01    -0.2249     -0.495     -0.718    13.6988 0.0000e+00
     -0.505 4.0296e-19    10.1731     98.056      0.388   0.300379    -0.1937      9.902  1240.2268 1.0645e+02    -0.2351     -0.495     -0.718    13.6978 0.0000e+00
     -0.505 4.4326e-18    10.1734     98.056      0.373   0.288892    -0.1983      9.956  1240.2293 1.4445e+02    -0.2217     -0.495     -0.718    13.6973 0.0000e+00
     -0.504 4.8758e-17    10.1752     98.070      0.389   0.300889    -0.2047     10.011  1240.2295 1.4123e+02    -0.1850     -0.494     -0.717    13.6967 0.0000e+00
     -0.504 5.3634e-16    10.1783     98.097      0.412   0.318612    -0.1974     10.060  1240.2295 1.3515e+02    -0.1884     -0.495     -0.717    13.6963 0.0000e+00
     -0.504 5.8998e-15    10.1789     98.102      0.404   0.312943    -0.1835     10.085  1240.2295 4.0669e+02    -0.2011     -0.494     -0.717    13.6965 0.0000e+00
     -0.504 6.4897e-14    10.1768     98.082      0.382   0.295753    -0.1842     10.090  1240.2295 6.6877e+02    -0.1862     -0.495     -0.718    13.6959 0.0000e+00
     -0.504 7.1387e-13    10.1759     98.074      0.389   0.301003    -0.1871     10.086  1240.2295 4.1086e+02    -0.1605     -0.495     -0.717    13.6938 0.0000e+00
     -0.504 7.8526e-12    10.1769     98.083      0.405   0.313010    -0.1815     10.083  1240.2295 1.2782e+02    -0.1646     -0.495     -0.717    13.6922 0.0000e+00
     -0.504 8.6379e-11    10.1774     98.088      0.406   0.314101    -0.1810     10.072  1240.2294 1.0340e+02    -0.2058     -0.495     -0.717    13.6919 0.0000e+00
     -0.504 9.5016e-10    10.1768     98.082      0.406   0.314200    -0.1901     10.024  1240.2287 1.0277e+02    -0.2009     -0.494     -0.717    13.6920 0.0000e+00
     -0.504 1.0452e-08    10.1755     98.068      0.406   0.314209    -0.2727      9.928  1240.2211 1.0288e+02     0.0774     -0.495     -0.718    13.6921 0.0000e+00
     -0.504 1.1497e-07    10.1747     98.059      0.406   0.314214    -0.4269      9.806  1240.1374 1.0336e+02     0.5656     -0.495     -0.717    13.6923 0.0000e+00
     -0.504      0.000    10.1752     98.064      0.406   0.314254    -0.5011      9.655  1239.2165 1.0608e+02     0.8194     -0.495     -0.717    13.6922 0.0000e+00
     -0.504      0.000    10.1752     98.066      0.407   0.314691    -0.4905      9.400  1229.0868 1.1076e+02     0.8262     -0.495     -0.717    13.6916 0.0000e+00
     -0.504      0.000    10.1755     98.071      0.413   0.319500    -0.4181      8.827  1117.6596 1.1575e+02     0.4646     -0.494     -0.717    13.6908 0.0000e+00
     -0.504      0.002    10.1767     98.088      0.481   0.372401    -0.2786      7.547  1015.3748 1.1989e+02    -0.2264     -0.495     -0.717    13.6900 0.0000e+00
     -0.504      0.009    10.1732     98.086      0.985   0.764067    -0.1908      7.413  1115.7843 1.2405e+02    -0.5702     -0.495     -0.718    13.6902 0.0000e+00
     -0.504      0.024    10.1611     98.080      5.689   4.420968    -0.1652      8.938  1208.2875 1.2911e+02    -0.5191     -0.495     -0.717    13.6910 0.0000e+00
     -0.503      0.045    10.1428     98.086     17.684  13.758928    -0.0702      8.879  1010.4093 1.3726e+02     0.1479     -0.494     -0.717    13.6925 0.0000e+00
     -0.498      0.070    10.1243     98.089     29.774  23.191897     0.9310      7.787   598.3093 1.7354e+02     7.5252     -0.494     -0.716    13.6938 0.0000e+00
     -0.477      0.093    10.1094     98.079     34.653  27.024908     2.7684      7.587   321.9504 5.1114e+02    21.0823     -0.476     -0.691    13.6945 0.0000e+00
     -0.439      0.111    10.1001     98.080     35.195  27.476106     3.7558      7.634   260.4808 8.2092e+02    28.6567     -0.431     -0.626    13.7438 0.0000e+00
     -0.395      0.123    10.0952     98.098     35.204  27.504369     3.7433      7.608   252.1568 5.2242e+02    31.2644     -0.385     -0.558    13.8477 0.0000e+00
     -0.356      0.126    10.0908     98.104     35.169  27.493651     2.6362      7.551   250.5578 1.9368e+02    52.7033     -0.347     -0.503    13.9371 0.0000e+00
     -0.326      0.121    10.0866     98.107     35.125  27.473530     0.5800      7.465   250.0958 1.6621e+02    91.9167     -0.319     -0.463    13.9950 0.0000e+00
     -0.301      0.110    10.0826     98.107     35.081  27.451604    -0.5418      7.365   251.6475 1.7435e+02   113.1106     -0.296     -0.429    14.0345 0.0000e+00
     -0.276      0.100    10.0782     98.092     35.028  27.419050    -0.6159      7.284   254.5202 2.1578e+02   112.5426     -0.269     -0.390    14.0635 0.0000e+00
     -0.252      0.094    10.0760     98.088     34.993  27.397420    -0.3899      7.220   256.0926 3.0152e+02    84.3779     -0.246     -0.357    14.0848 0.0000e+00
     -0.230      0.092    10.0756     98.095     34.967  27.380582     0.0225      7.151   254.6555 3.2688e+02    32.3440     -0.226     -0.329    14.1049 0.0000e+00
     -0.208      0.093    10.0763     98.107     34.916  27.342463     0.2435      7.077   252.2018 2.4201e+02     3.9511     -0.203     -0.295    14.1244 0.0000e+00
     -0.184      0.093    10.0816     98.162     34.883  27.317516     0.2606      7.006   250.8604 1.8001e+02     1.3704     -0.181     -0.262    14.1370 0.0000e+00
     -0.160      0.092    10.0955     98.298     34.903  27.332942     0.2661      6.945   250.4819 1.7564e+02     1.2018     -0.159     -0.230    14.1454 0.0000e+00
     -0.135      0.089    10.1174     98.509     34.911  27.338486     0.2735      6.903   250.9812 1.7703e+02     1.3025     -0.134     -0.193    14.1498 0.0000e+00
     -0.109      0.084    10.1439     98.767     34.888  27.321045     0.2673      6.882   252.5082 1.7814e+02     1.3363     -0.105     -0.152    14.1520 0.0000e+00
     -0.087      0.078    10.1745     99.065     34.877  27.312551     0.2642      6.870   254.3188 1.7647e+02     1.3362     -0.082     -0.120    14.1530 0.0000e+00
     -0.071      0.072    10.2081     99.392     34.860  27.299293     0.2832      6.860   255.6655 1.7348e+02     1.3308     -0.071     -0.102    14.1526 0.0000e+00
     -0.055      0.064    10.2420     99.721     34.846  27.287730     0.3126      6.849   256.8313 1.7095e+02     1.3018     -0.056     -0.080    14.1517 0.0000e+00
     -0.039      0.057    10.2790    100.080     34.862  27.299737     0.3349      6.835   258.0897 1.7040e+02     1.3220     -0.038     -0.054    14.1520 0.0000e+00
     -0.024      0.051    10.3202    100.479     34.885  27.317473     0.3409      6.814   259.7820 1.7143e+02     1.3302     -0.024     -0.034    14.1525 0.0000e+00
     -0.012      0.045    10.3520    100.786     34.879  27.311682     0.3391      6.780   261.5467 1.7193e+02     1.2791     -0.010     -0.015    14.1524 0.0000e+00
     -0.002      0.037    10.3498    100.762     34.857  27.293219     0.3406      6.739   262.5637 1.7205e+02     1.2533     -0.001     -0.002    14.1521 0.0000e+00
      0.007      0.028    10.2849    100.127     34.847  27.284736     0.3411      6.700   263.2163 1.7290e+02     1.2626      0.007      0.010    14.1508 0.0000e+00
      0.014      0.020    10.1458     98.772     34.832  27.272616     0.3363      6.667   263.8448 1.7367e+02     1.2694      0.015      0.023    14.1500 0.0000e+00
      0.018      0.014     9.9464     96.834     34.832  27.273665     0.3368      6.645   264.0537 1.7356e+02     1.3050      0.018      0.027    14.1494 0.0000e+00
      0.018      0.011     9.7065     94.502     34.860  27.297416     0.3379      6.635   264.0212 1.7361e+02     1.3274      0.018      0.026    14.1474 0.0000e+00
      0.019      0.011     9.4390     91.900     34.870  27.305803     0.3317      6.631   264.9152 1.7408e+02     1.2952      0.018      0.027    14.1458 0.0000e+00
