* Sea-Bird SBE19plus  Data File:
* FileName = C:\DATA\043018_fcr_0011.hex
* Software version 2.6.3.104 SB_Terminal.dll
* Temperature SN = 7809
* Conductivity SN = 7809
* System UpLoad Time = May 01 2018 12:01:02
* <ApplicationData>
* <Seaterm232>
* <SoftwareVersion>2.6.3.104</SoftwareVersion>
* <BuildDate>30-Jun-2017</BuildDate>
* </Seaterm232>
* </ApplicationData>
* cast  11 30 Apr 2018 20:50:12 samples 11254 to 12386, avg = 1, stop = mag switch
# nquan = 15
# nvalues = 974                         
# units = specified
# name 0 = depFM: Depth [fresh water, m]
# name 1 = dz/dtM: Descent Rate [m/s]
# name 2 = sbeox0Mg/L: Oxygen, SBE 43 [mg/l]
# name 3 = sbeox0PS: Oxygen, SBE 43 [% saturation]
# name 4 = specc: Specific Conductance [uS/cm]
# name 5 = c0uS/cm: Conductivity [uS/cm]
# name 6 = flECO-AFL: Fluorescence, WET Labs ECO-AFL/FL [mg/m^3]
# name 7 = ph: pH
# name 8 = orp: Oxidation Reduction Potential [mV]
# name 9 = par/sat/log: PAR/Logarithmic, Satlantic
# name 10 = turbWETntu0: Turbidity, WET Labs ECO [NTU]
# name 11 = prdM: Pressure, Strain Gauge [db]
# name 12 = prdE: Pressure, Strain Gauge [psi]
# name 13 = tv290C: Temperature [ITS-90, deg C]
# name 14 = flag:  0.000e+00
# span 0 =     -0.555,      7.364       
# span 1 =     -0.096,      0.349       
# span 2 =     6.7822,    10.0834       
# span 3 =     62.993,    102.815       
# span 4 =      0.488,     38.591       
# span 5 =   0.399297,  29.513845       
# span 6 =    -0.2036,     8.0347       
# span 7 =      6.334,     11.088       
# span 8 =  -812.8210,   490.2694       
# span 9 = 1.7455e+00, 1.5885e+03       
# span 10 =    -3.3398,     2.1623      
# span 11 =     -0.544,      7.222      
# span 12 =     -0.790,     10.475      
# span 13 =     8.0823,    16.3111      
# span 14 = 0.0000e+00, 0.0000e+00      
# interval = seconds: 0.25
# start_time = Apr 30 2018 20:50:12 [Instrument's time stamp, header]
# bad_flag = -9.990e-29
# <Sensors count="9" >
#   <sensor Channel="1" >
#     <!-- Count, Temperature -->
#     <TemperatureSensor SensorID="58" >
#       <SerialNumber>7809</SerialNumber>
#       <CalibrationDate>09-Mar-18</CalibrationDate>
#       <A0>1.21093245e-003</A0>
#       <A1>2.84356597e-004</A1>
#       <A2>-1.94507398e-006</A2>
#       <A3>2.12806664e-007</A3>
#       <Slope>1.00000000</Slope>
#       <Offset>0.0000</Offset>
#     </TemperatureSensor>
#   </sensor>
#   <sensor Channel="2" >
#     <!-- Frequency 0, Conductivity -->
#     <ConductivitySensor SensorID="3" >
#       <SerialNumber>7809</SerialNumber>
#       <CalibrationDate>09-Mar-18</CalibrationDate>
#       <UseG_J>1</UseG_J>
#       <!-- Cell const and series R are applicable only for wide range sensors. -->
#       <SeriesR>0.0000</SeriesR>
#       <CellConst>2000.0000</CellConst>
#       <ConductivityType>0</ConductivityType>
#       <Coefficients equation="0" >
#         <A>0.00000000e+000</A>
#         <B>0.00000000e+000</B>
#         <C>0.00000000e+000</C>
#         <D>0.00000000e+000</D>
#         <M>0.0</M>
#         <CPcor>-9.57000000e-008</CPcor>
#       </Coefficients>
#       <Coefficients equation="1" >
#         <G>-1.00672082e+000</G>
#         <H>1.26906489e-001</H>
#         <I>-1.40584351e-004</I>
#         <J>2.47837121e-005</J>
#         <CPcor>-9.57000000e-008</CPcor>
#         <CTcor>3.2500e-006</CTcor>
#         <!-- WBOTC not applicable unless ConductivityType = 1. -->
#         <WBOTC>0.00000000e+000</WBOTC>
#       </Coefficients>
#       <Slope>1.00000000</Slope>
#       <Offset>0.00000</Offset>
#     </ConductivitySensor>
#   </sensor>
#   <sensor Channel="3" >
#     <!-- Count, Pressure, Strain Gauge -->
#     <PressureSensor SensorID="46" >
#       <SerialNumber>7809</SerialNumber>
#       <CalibrationDate>07-Mar-18</CalibrationDate>
#       <PA0>-4.08176359e-002</PA0>
#       <PA1>4.85188419e-004</PA1>
#       <PA2>-3.51168169e-012</PA2>
#       <PTEMPA0>-5.37806900e+001</PTEMPA0>
#       <PTEMPA1>5.36620721e+001</PTEMPA1>
#       <PTEMPA2>4.87214332e-002</PTEMPA2>
#       <PTCA0>5.25213435e+005</PTCA0>
#       <PTCA1>1.79532409e+000</PTCA1>
#       <PTCA2>-2.84353509e-001</PTCA2>
#       <PTCB0>2.51668750e+001</PTCB0>
#       <PTCB1>3.75000000e-004</PTCB1>
#       <PTCB2>0.00000000e+000</PTCB2>
#       <Offset>0.000000</Offset>
#     </PressureSensor>
#   </sensor>
#   <sensor Channel="4" >
#     <!-- A/D voltage 0, pH -->
#     <pH_Sensor SensorID="43" >
#       <SerialNumber>0363</SerialNumber>
#       <CalibrationDate>16-Mar-18</CalibrationDate>
#       <Slope>4.6194</Slope>
#       <Offset>2.5947</Offset>
#     </pH_Sensor>
#   </sensor>
#   <sensor Channel="5" >
#     <!-- A/D voltage 1, Oxidation Reduction Potential -->
#     <OxidationReductionPotentialSensor SensorID="41" >
#       <SerialNumber>0363</SerialNumber>
#       <CalibrationDate>16-Mar-18</CalibrationDate>
#       <B>2.499480</B>
#       <M>-0.496195</M>
#       <Offset>0.0</Offset>
#     </OxidationReductionPotentialSensor>
#   </sensor>
#   <sensor Channel="6" >
#     <!-- A/D voltage 2, Oxygen, SBE 43 -->
#     <OxygenSensor SensorID="38" >
#       <SerialNumber>0434</SerialNumber>
#       <CalibrationDate>13-Mar-18</CalibrationDate>
#       <Use2007Equation>1</Use2007Equation>
#       <CalibrationCoefficients equation="0" >
#         <!-- Coefficients for Owens-Millard equation. -->
#         <Boc>0.0000</Boc>
#         <Soc>0.0000e+000</Soc>
#         <offset>0.0000</offset>
#         <Pcor>0.00e+000</Pcor>
#         <Tcor>0.0000</Tcor>
#         <Tau>0.0</Tau>
#       </CalibrationCoefficients>
#       <CalibrationCoefficients equation="1" >
#         <!-- Coefficients for Sea-Bird equation - SBE calibration in 2007 and later. -->
#         <Soc>4.5718e-001</Soc>
#         <offset>-0.6113</offset>
#         <A>-4.0649e-003</A>
#         <B> 2.0945e-004</B>
#         <C>-3.3182e-006</C>
#         <D0> 2.5826e+000</D0>
#         <D1> 1.92634e-004</D1>
#         <D2>-4.64803e-002</D2>
#         <E> 3.6000e-002</E>
#         <Tau20> 1.2200</Tau20>
#         <H1>-3.3000e-002</H1>
#         <H2> 5.0000e+003</H2>
#         <H3> 1.4500e+003</H3>
#       </CalibrationCoefficients>
#     </OxygenSensor>
#   </sensor>
#   <sensor Channel="7" >
#     <!-- A/D voltage 3, PAR/Logarithmic, Satlantic -->
#     <PARLog_SatlanticSensor SensorID="76" >
#       <SerialNumber>1122</SerialNumber>
#       <CalibrationDate>22-Jun-2017</CalibrationDate>
#       <a0>9.6090e-001</a0>
#       <a1>8.0780e-001</a1>
#       <Im>1.3589e+000</Im>
#       <Multiplier>1.0000e+000</Multiplier>
#     </PARLog_SatlanticSensor>
#   </sensor>
#   <sensor Channel="8" >
#     <!-- A/D voltage 4, Fluorometer, WET Labs ECO-AFL/FL -->
#     <FluoroWetlabECO_AFL_FL_Sensor SensorID="20" >
#       <SerialNumber>FLNTURT-2496</SerialNumber>
#       <CalibrationDate>25-Jan-2017</CalibrationDate>
#       <ScaleFactor>5.30000000e+001</ScaleFactor>
#       <!-- Dark output -->
#       <Vblank>0.0560</Vblank>
#     </FluoroWetlabECO_AFL_FL_Sensor>
#   </sensor>
#   <sensor Channel="9" >
#     <!-- A/D voltage 5, Turbidity Meter, WET Labs, ECO-NTU -->
#     <TurbidityMeter SensorID="67" >
#       <SerialNumber>FLNTURT-2496</SerialNumber>
#       <CalibrationDate>25-Jan-2017</CalibrationDate>
#       <ScaleFactor>176.000000</ScaleFactor>
#       <!-- Dark output -->
#       <DarkVoltage>0.072000</DarkVoltage>
#     </TurbidityMeter>
#   </sensor>
# </Sensors>
# datcnv_date = May 08 2018 08:16:32, 7.26.7.114 [datcnv_vars = 14]
# datcnv_in = C:\DATA\043018_fcr45.hex C:\DATA\SBE19plusV2_7809.xmlcon
# datcnv_skipover = 0
# datcnv_ox_hysteresis_correction = yes
# datcnv_ox_tau_correction = yes
# filter_date = May 08 2018 08:16:56, 7.26.7.114
# filter_in = C:\DATA\043018_fcr45.cnv
# filter_low_pass_tc_A = 0.030
# filter_low_pass_tc_B = 0.150
# filter_low_pass_A_vars = prdM prdE tv290C
# filter_low_pass_B_vars = depFM dz/dtM sbeox0Mg/L sbeox0PS specc c0uS/cm flECO-AFL ph orp par/sat/log turbWETntu0
# alignctd_date = May 08 2018 08:17:15, 7.26.7.114
# alignctd_in = C:\DATA\043018_fcr45.cnv
# alignctd_adv = dz/dtM 1.000, sbeox0Mg/L 1.000, sbeox0PS 1.000, specc 1.000, c0uS/cm 1.000, flECO-AFL 1.000, ph 1.000, orp 1.000, turbWETntu0 1.000                                                                                 
# file_type = ascii
*END*
     -0.554     -0.001     9.6792     97.849      0.586   0.478943    -0.2036     11.088  -812.8210 1.5040e+03    -0.4304     -0.543     -0.787    15.8986 0.0000e+00
     -0.554     -0.001     9.6795     97.851      0.570   0.466166    -0.2012     10.913  -707.7524 1.4455e+03    -0.4545     -0.543     -0.788    15.8984 0.0000e+00
     -0.554     -0.001     9.6795     97.851      0.538   0.439755    -0.1822     10.283  -641.6514 1.1215e+03    -0.4963     -0.544     -0.789    15.8982 0.0000e+00
     -0.554     -0.000     9.6793     97.849      0.505   0.413256    -0.0367      9.485  -597.6346 6.0025e+02    -1.2405     -0.544     -0.788    15.8971 0.0000e+00
     -0.555 -1.816e-08     9.6793     97.852      0.488   0.399420     0.2344      8.718  -415.6841 4.5363e+02    -2.6165     -0.544     -0.789    15.8957 0.0000e+00
     -0.555 -1.997e-07     9.6798     97.857      0.488   0.399297     0.3840      8.082  -263.4129 5.4270e+02    -3.3398     -0.544     -0.789    15.8955 0.0000e+00
     -0.555 -1.493e-07     9.6792     97.852      0.503   0.411770     0.3937      7.682  -243.7249 3.8973e+02    -3.3027     -0.544     -0.789    15.8957 0.0000e+00
     -0.554 5.9118e-07     9.6777     97.840      0.517   0.423398     0.3248      7.477  -262.6457 2.3360e+02    -2.1980     -0.544     -0.788    15.8956 0.0000e+00
     -0.554      0.000     9.6767     97.832      0.505   0.413068     0.1940      7.344  -232.7745 2.1063e+02    -0.1455     -0.544     -0.788    15.8959 0.0000e+00
     -0.555      0.000     9.6762     97.834      0.505   0.413697     0.1356      7.191   -34.7574 2.0501e+02     1.0060     -0.544     -0.789    15.8964 0.0000e+00
     -0.555      0.001     9.6750     97.847      0.681   0.557825     0.1429      6.950   281.1152 2.1508e+02     1.1052     -0.544     -0.789    15.8973 0.0000e+00
     -0.555      0.004     9.6722     97.865      2.477   2.028880     0.1722      6.680   468.6094 3.0320e+02     0.9621     -0.544     -0.789    15.8984 0.0000e+00
     -0.555      0.008     9.6676     97.883      6.033   4.945012     0.2322      6.511   490.2694 4.6819e+02     0.7711     -0.544     -0.790    15.9005 0.0000e+00
     -0.554      0.010     9.6603     97.923      7.169   5.880827     0.2715      6.437   461.3530 5.6489e+02     0.6877     -0.542     -0.787    15.8991 0.0000e+00
     -0.552      0.013     9.6490     97.976      5.279   4.337618     0.2795      6.350   230.3188 6.0669e+02     0.6556     -0.544     -0.790    15.9106 0.0000e+00
     -0.543      0.026     9.6376     98.026      8.445   6.963201     0.2920      6.334   -17.9429 6.3109e+02     0.8411     -0.536     -0.777    15.9378 0.0000e+00
     -0.534      0.055     9.6334     98.104     20.065  16.560033     0.3206      6.604   102.7666 5.4283e+02     1.2822     -0.513     -0.743    15.9586 0.0000e+00
     -0.537      0.102     9.6378     98.219     30.895  25.508071     0.3403      7.051   275.8386 3.9827e+02     1.5331     -0.529     -0.768    16.0093 0.0000e+00
     -0.531      0.164     9.6500     98.378     34.687  28.647029     0.3377      7.383   289.2547 3.6654e+02     1.5242     -0.539     -0.782    16.1054 0.0000e+00
     -0.487      0.234     9.6707     98.606     35.022  28.928624     0.3257      7.528   291.3939 5.0350e+02     1.5115     -0.486     -0.705    16.1950 0.0000e+00
     -0.408      0.298     9.7049     98.956     35.002  28.912807     0.2971      7.559   293.7017 7.4958e+02     1.4403     -0.410     -0.594    16.2489 0.0000e+00
     -0.303      0.341     9.7565     99.452     34.921  28.836797     0.2667      7.540   295.3912 7.9538e+02     1.2743     -0.305     -0.443    16.2785 0.0000e+00
     -0.179      0.349     9.8201    100.020     34.875  28.771612     0.2613      7.505   296.7642 7.2256e+02     1.1823     -0.172     -0.250    16.2920 0.0000e+00
     -0.061      0.317     9.8916    100.630     34.907  28.759651     0.2597      7.467   297.9982 1.0747e+03     1.1513     -0.049     -0.071    16.2983 0.0000e+00
      0.029      0.257     9.9606    101.234     35.019  28.819127     0.2659      7.423   298.8691 1.4732e+03     1.1746      0.042      0.063    16.3020 0.0000e+00
      0.080      0.182    10.0119    101.712     35.235  28.982671     0.2995      7.373   299.4638 1.4045e+03     1.2802      0.089      0.129    16.2942 0.0000e+00
      0.100      0.112    10.0459    102.062     35.590  29.276475     0.3262      7.324   299.7680 1.0271e+03     1.3301      0.103      0.148    16.2550 0.0000e+00
      0.102      0.062    10.0616    102.254     35.866  29.513845     0.3315      7.277   300.1384 7.3845e+02     1.3205      0.103      0.149    16.1857 0.0000e+00
      0.096      0.044    10.0399    102.075     35.836  29.503076     0.3360      7.227   300.8450 8.1569e+02     1.2553      0.095      0.138    16.1328 0.0000e+00
      0.090      0.059     9.9738    101.439     35.619  29.336791     0.3350      7.174   301.6863 9.4004e+02     1.1520      0.085      0.124    16.1169 0.0000e+00
      0.095      0.094     9.8826    100.529     35.468  29.217930     0.3280      7.133   302.5671 9.7232e+02     1.1399      0.084      0.121    16.1225 0.0000e+00
      0.122      0.134     9.7706     99.383     35.460  29.209008     0.3346      7.108   303.2347 8.4400e+02     1.1395      0.111      0.162    16.1398 0.0000e+00
      0.173      0.168     9.6288     97.920     35.415  29.165411     0.3414      7.092   303.6494 5.4731e+02     1.0858      0.164      0.237    16.1613 0.0000e+00
      0.240      0.187     9.4615     96.191     35.236  29.008308     0.3361      7.078   304.1389 5.3905e+02     1.0703      0.234      0.340    16.1808 0.0000e+00
      0.309      0.185     9.2774     94.275     35.043  28.833536     0.3350      7.069   304.8524 6.9215e+02     1.1044      0.311      0.452    16.1910 0.0000e+00
      0.362      0.161     9.0923     92.306     34.923  28.703310     0.3367      7.064   305.4787 8.5154e+02     1.1317      0.359      0.521    16.1849 0.0000e+00
      0.401      0.125     8.9205     90.440     34.900  28.640254     0.3298      7.064   305.8616 1.1864e+03     1.1869      0.397      0.576    16.1719 0.0000e+00
      0.424      0.086     8.7650     88.754     34.953  28.642589     0.3157      7.069   306.2976 1.3337e+03     1.2834      0.423      0.614    16.1611 0.0000e+00
      0.431      0.051     8.6364     87.380     35.017  28.667993     0.3129      7.075   306.7929 1.0584e+03     1.3227      0.425      0.616    16.1449 0.0000e+00
      0.431      0.026     8.5519     86.489     35.064  28.693370     0.3240      7.080   307.2048 7.2901e+02     1.3261      0.423      0.613    16.1002 0.0000e+00
      0.432      0.010     8.5129     86.081     35.073  28.695404     0.3295      7.084   307.4913 6.8421e+02     1.3248      0.423      0.614    16.0247 0.0000e+00
      0.433      0.002     8.5096     86.044     35.071  28.692569     0.3435      7.088   307.7616 6.9212e+02     1.2456      0.424      0.615    15.9596 0.0000e+00
      0.433      0.001     8.5299     86.252     35.106  28.722597     0.3738      7.095   308.0637 5.7507e+02     1.1317      0.426      0.618    15.9242 0.0000e+00
      0.432      0.002     8.5584     86.547     35.126  28.740967     0.3918      7.104   308.3062 5.6119e+02     1.1082      0.425      0.617    15.9078 0.0000e+00
      0.430      0.002     8.5823     86.797     35.101  28.724169     0.3967      7.112   308.5417 5.7429e+02     1.1436      0.420      0.608    15.9028 0.0000e+00
      0.431      0.001     8.5897     86.881     35.081  28.710013     0.3779      7.119   308.7594 4.9912e+02     1.1326      0.423      0.613    15.9015 0.0000e+00
      0.435     -0.001     8.5732     86.720     35.061  28.696812     0.3392      7.124   308.8735 5.6919e+02     1.0972      0.428      0.622    15.9029 0.0000e+00
      0.437     -0.004     8.5357     86.342     35.054  28.691561     0.3235      7.129   308.8896 6.8979e+02     1.1125      0.429      0.623    15.9073 0.0000e+00
      0.437     -0.005     8.4836     85.817     35.075  28.710025     0.3256      7.133   308.9538 6.2539e+02     1.1349      0.430      0.623    15.9122 0.0000e+00
      0.432     -0.005     8.4226     85.209     35.094  28.729555     0.3281      7.138   309.0482 5.2047e+02     1.1238      0.426      0.617    15.9174 0.0000e+00
      0.426     -0.003     8.3601     84.593     35.096  28.737197     0.3262      7.143   309.0839 4.9603e+02     1.1312      0.416      0.604    15.9215 0.0000e+00
      0.421      0.000     8.3096     84.101     35.090  28.738928     0.3204      7.147   309.2136 6.7616e+02     1.1321      0.410      0.595    15.9210 0.0000e+00
      0.423      0.003     8.2845     83.861     35.097  28.750493     0.3225      7.149   309.4125 9.3523e+02     1.1042      0.412      0.598    15.9203 0.0000e+00
      0.431      0.006     8.2882     83.909     35.092  28.750031     0.3247      7.152   309.5098 8.4774e+02     1.1301      0.424      0.615    15.9262 0.0000e+00
      0.437      0.007     8.3140     84.177     35.069  28.733351     0.3277      7.157   309.5296 5.9540e+02     1.2008      0.431      0.625    15.9369 0.0000e+00
      0.438      0.006     8.3507     84.549     35.076  28.739322     0.3323      7.161   309.6513 5.4548e+02     1.2268      0.430      0.623    15.9476 0.0000e+00
      0.437      0.004     8.3875     84.914     35.103  28.758721     0.3340      7.163   309.9486 7.2957e+02     1.2305      0.429      0.622    15.9556 0.0000e+00
      0.435      0.000     8.4136     85.162     35.133  28.777391     0.3578      7.165   310.0268 1.0846e+03     1.2154      0.428      0.621    15.9614 0.0000e+00
      0.433     -0.005     8.4218     85.224     35.139  28.774543     0.3896      7.165   309.7365 1.3138e+03     1.1661      0.422      0.613    15.9649 0.0000e+00
      0.434     -0.014     8.4087     85.075     35.085  28.724281     0.3971      7.166   309.5360 1.1358e+03     1.1529      0.423      0.614    15.9657 0.0000e+00
      0.438     -0.024     8.3790     84.761     35.035  28.677694     0.3936      7.169   309.5820 8.2610e+02     1.1466      0.433      0.628    15.9627 0.0000e+00
      0.435     -0.033     8.3466     84.422     35.014  28.655769     0.3749      7.174   309.6902 7.4343e+02     1.1209      0.433      0.627    15.9519 0.0000e+00
      0.418     -0.040     8.3241     84.186     35.010  28.649682     0.3457      7.177   309.8119 7.4922e+02     1.1170      0.412      0.596    15.9385 0.0000e+00
      0.397     -0.047     8.3108     84.051     35.032  28.667592     0.3348      7.177   309.9349 7.0476e+02     1.0992      0.385      0.559    15.9292 0.0000e+00
      0.382     -0.052     8.3011     83.956     35.048  28.681812     0.3256      7.177   309.9727 6.6909e+02     1.0897      0.373      0.541    15.9231 0.0000e+00
      0.372     -0.052     8.2921     83.871     35.061  28.694616     0.3168      7.178   309.9245 6.6232e+02     1.1238      0.364      0.529    15.9165 0.0000e+00
      0.362     -0.049     8.2816     83.771     35.060  28.695402     0.3393      7.180   309.8682 6.3251e+02     1.1152      0.356      0.516    15.9107 0.0000e+00
      0.352     -0.044     8.2722     83.682     35.052  28.691318     0.3768      7.182   309.8092 6.4410e+02     1.0467      0.346      0.502    15.9107 0.0000e+00
