* Sea-Bird SBE19plus  Data File:
* FileName = C:\R\Reservoirs\Data\DataNotYetUploadedToEDI\Raw_CTD\RawDownloads\050222_bvr50_0001.hex
* Software version 2.8.0.119
* Temperature SN = 7809
* Conductivity SN = 7809
* System UpLoad Time = May 03 2022 18:47:36
* <ApplicationData>
* <Seaterm232>
* <SoftwareVersion>2.8.0.119</SoftwareVersion>
* <BuildDate>07-Nov-2018</BuildDate>
* </Seaterm232>
* </ApplicationData>
* <InstrumentState>
* <HardwareData DeviceType='SBE19plus' SerialNumber='01907809'>
*
*    <Manufacturer>Sea-Bird Electronics, Inc.</Manufacturer>
*
*    <FirmwareVersion>3.1.8</FirmwareVersion>
*
*    <FirmwareDate>Mar  9 2016 16:22:29</FirmwareDate>
*
*    <CommandSetVersion>1.4</CommandSetVersion>
*
*    <PCBAssembly PCBSerialNum='120721' AssemblyNum='41054J'/>
*
*    <PCBAssembly PCBSerialNum='120715' AssemblyNum='41967A'/>
*
*    <PCBAssembly PCBSerialNum='116699' AssemblyNum='41606'/>
*
*    <PCBAssembly PCBSerialNum='120719' AssemblyNum='41059D'/>
*
*    <MfgDate>28-Apr-2017</MfgDate>
*
*    <InternalSensors>
*
*       <Sensor id='Main Temperature'>
*
*          <type>temperature0</type>
*
*          <SerialNumber>01907809</SerialNumber>
*
*       </Sensor>
*
*       <Sensor id='Main Conductivity'>
*
*          <type>conductivity-0</type>
*
*          <SerialNumber>01907809</SerialNumber>
*
*       </Sensor>
*
*       <Sensor id='Main Pressure'>
*
*          <type>strain-0</type>
*
*          <SerialNumber>10586018</SerialNumber>
*
*       </Sensor>
*
*    </InternalSensors>
*
*    <ExternalSensors>
*
*       <Sensor id='volt 0'>
*
*          <type>pH</type>
*
*          <SerialNumber>27-0363</SerialNumber>
*
*       </Sensor>
*
*       <Sensor id='volt 1'>
*
*          <type>ORP</type>
*
*          <SerialNumber>27-0363</SerialNumber>
*
*       </Sensor>
*
*       <Sensor id='volt 2'>
*
*          <type>OXY</type>
*
*          <SerialNumber>43-0434</SerialNumber>
*
*       </Sensor>
*
*       <Sensor id='volt 3'>
*
*          <type>PAR</type>
*
*          <SerialNumber>1122</SerialNumber>
*
*       </Sensor>
*
*       <Sensor id='volt 4'>
*
*          <type>ECO AFL/FL</type>
*
*          <SerialNumber>FLNTURT-2496</SerialNumber>
*
*       </Sensor>
*
*       <Sensor id='volt 5'>
*
*          <type>ECO-NTU</type>
*
*          <SerialNumber>FLNTURT-2496</SerialNumber>
*
*       </Sensor>
*
*       <Sensor id='serial'>
*
*          <type>not assigned</type>
*
*          <SerialNumber>not assigned</SerialNumber>
*
*       </Sensor>
*
*    </ExternalSensors>
*
* </HardwareData>
* <StatusData DeviceType='SBE19plus' SerialNumber='01907809'>
*
*    <DateTime>2022-05-03T15:46:57</DateTime>
*
*    <LoggingState>not logging</LoggingState>
*
*    <EventSummary numEvents='0'/>
*
*    <Power>
*
*       <vMain>13.1</vMain>
*
*       <vLith>8.5</vLith>
*
*       <iMain>63.1</iMain>
*
*       <iPump>84.7</iPump>
*
*       <iExt01>19.4</iExt01>
*
*       <iExt2345>36.2</iExt2345>
*
*    </Power>
*
*    <MemorySummary>
*
*       <Bytes>150788</Bytes>
*
*       <Samples>6556</Samples>
*
*       <SamplesFree>2854232</SamplesFree>
*
*       <SampleLength>23</SampleLength>
*
*       <Profiles>3</Profiles>
*
*    </MemorySummary>
*
* </StatusData>
* <ConfigurationData DeviceType='SBE19plus' SerialNumber='01907809'>
*
*    <ProfileMode>
*
*       <ScansToAverage>1</ScansToAverage>
*
*       <MinimumCondFreq>5</MinimumCondFreq>
*
*       <PumpDelay>40</PumpDelay>
*
*       <AutoRun>no</AutoRun>
*
*       <IgnoreSwitch>no</IgnoreSwitch>
*
*    </ProfileMode>
*
*    <Battery>
*
*       <Type>alkaline</Type>
*
*       <CutOff>7.5</CutOff>
*
*    </Battery>
*
*    <DataChannels>
*
*       <ExtVolt0>yes</ExtVolt0>
*
*       <ExtVolt1>yes</ExtVolt1>
*
*       <ExtVolt2>yes</ExtVolt2>
*
*       <ExtVolt3>yes</ExtVolt3>
*
*       <ExtVolt4>yes</ExtVolt4>
*
*       <ExtVolt5>yes</ExtVolt5>
*
*       <SBE38>no</SBE38>
*
*       <WETLABS>no</WETLABS>
*
*       <OPTODE>no</OPTODE>
*
*       <SBE63>no</SBE63>
*
*       <SeaFET>no</SeaFET>
*
*       <GTD>no</GTD>
*
*    </DataChannels>
*
*    <EchoCharacters>yes</EchoCharacters>
*
*    <OutputExecutedTag>yes</OutputExecutedTag>
*
*    <OutputFormat>raw HEX</OutputFormat>
*
* </ConfigurationData>
* <CalibrationCoefficients DeviceType='SBE19plus' SerialNumber='01907809'>
*
*    <Calibration format='TEMP1' id='Main Temperature'>
*
*       <SerialNum>01907809</SerialNum>
*
*       <CalDate>25-Sep-21</CalDate>
*
*       <TA0>1.232513e-03</TA0>
*
*       <TA1>2.763223e-04</TA1>
*
*       <TA2>-9.501887e-07</TA2>
*
*       <TA3>1.718014e-07</TA3>
*
*       <TOFFSET>0.000000e+00</TOFFSET>
*
*    </Calibration>
*
*    <Calibration format='WBCOND0' id='Main Conductivity'>
*
*       <SerialNum>01907809</SerialNum>
*
*       <CalDate>25-Sep-21</CalDate>
*
*       <G>-1.004440e+00</G>
*
*       <H>1.264604e-01</H>
*
*       <I>-7.854363e-05</I>
*
*       <J>2.210938e-05</J>
*
*       <CPCOR>-9.570000e-08</CPCOR>
*
*       <CTCOR>3.250000e-06</CTCOR>
*
*       <CSLOPE>1.000000e+00</CSLOPE>
*
*    </Calibration>
*
*    <Calibration format='STRAIN0' id='Main Pressure'>
*
*       <SerialNum>10586018</SerialNum>
*
*       <CalDate>10-Sep-21</CalDate>
*
*       <PA0>4.789196e-02</PA0>
*
*       <PA1>4.853655e-04</PA1>
*
*       <PA2>-3.689276e-12</PA2>
*
*       <PTCA0>5.254946e+05</PTCA0>
*
*       <PTCA1>1.325193e+01</PTCA1>
*
*       <PTCA2>-3.889275e-01</PTCA2>
*
*       <PTCB0>2.516687e+01</PTCB0>
*
*       <PTCB1>3.750000e-04</PTCB1>
*
*       <PTCB2>0.000000e+00</PTCB2>
*
*       <PTEMPA0>-5.401644e+01</PTEMPA0>
*
*       <PTEMPA1>5.390655e+01</PTEMPA1>
*
*       <PTEMPA2>-2.194112e-02</PTEMPA2>
*
*       <POFFSET>-1.280000e-01</POFFSET>
*
*       <PRANGE>1.600000e+02</PRANGE>
*
*    </Calibration>
*
*    <Calibration format='VOLT0' id='Volt 0'>
*
*       <OFFSET>-4.920000e-02</OFFSET>
*
*       <SLOPE>1.248122e+00</SLOPE>
*
*    </Calibration>
*
*    <Calibration format='VOLT0' id='Volt 1'>
*
*       <OFFSET>-4.784000e-02</OFFSET>
*
*       <SLOPE>1.248871e+00</SLOPE>
*
*    </Calibration>
*
*    <Calibration format='VOLT0' id='Volt 2'>
*
*       <OFFSET>-4.864632e-02</OFFSET>
*
*       <SLOPE>1.248714e+00</SLOPE>
*
*    </Calibration>
*
*    <Calibration format='VOLT0' id='Volt 3'>
*
*       <OFFSET>-4.743790e-02</OFFSET>
*
*       <SLOPE>1.248571e+00</SLOPE>
*
*    </Calibration>
*
*    <Calibration format='VOLT0' id='Volt 4'>
*
*       <OFFSET>-4.671263e-02</OFFSET>
*
*       <SLOPE>1.248951e+00</SLOPE>
*
*    </Calibration>
*
*    <Calibration format='VOLT0' id='Volt 5'>
*
*       <OFFSET>-4.871053e-02</OFFSET>
*
*       <SLOPE>1.249136e+00</SLOPE>
*
*    </Calibration>
*
*    <Calibration format='FREQ0' id='external frequency channel'>
*
*       <EXTFREQSF>1.000014e+00</EXTFREQSF>
*
*    </Calibration>
*
* </CalibrationCoefficients>
* <EventCounters DeviceType='SBE19plus' SerialNumber='01907809'>
*
*    <EventSummary numEvents='0'/>
*
* </EventCounters></InstrumentState>
* <Headers>
*
* cast   1 20 Apr 2022 07:05:48 samples 1 to 983, avg = 1, stop = mag switch
*
# nquan = 15
# nvalues = 767                         
# units = specified
# name 0 = depFM: Depth [fresh water, m]
# name 1 = dz/dtM: Descent Rate [m/s]
# name 2 = sbeox0Mg/L: Oxygen, SBE 43 [mg/l]
# name 3 = sbeox0PS: Oxygen, SBE 43 [% saturation]
# name 4 = specc: Specific Conductance [uS/cm]
# name 5 = c0uS/cm: Conductivity [uS/cm]
# name 6 = flECO-AFL: Fluorescence, WET Labs ECO-AFL/FL [mg/m^3]
# name 7 = ph: pH
# name 8 = orp: Oxidation Reduction Potential [mV]
# name 9 = par/sat/log: PAR/Logarithmic, Satlantic
# name 10 = turbWETntu0: Turbidity, WET Labs ECO [NTU]
# name 11 = prdM: Pressure, Strain Gauge [db]
# name 12 = prdE: Pressure, Strain Gauge [psi]
# name 13 = tv290C: Temperature [ITS-90, deg C]
# name 14 = flag:  0.000e+00
# span 0 =     -0.150,     16.977       
# span 1 =     -0.196,      0.219       
# span 2 =     7.2323,    10.7333       
# span 3 =     69.334,    102.131       
# span 4 =     88.937,     98.744       
# span 5 =  66.280161,  71.227373       
# span 6 =    -0.0258,     5.4927       
# span 7 =      6.079,      7.389       
# span 8 =   142.9047,   289.3054       
# span 9 = 1.2364e-01, 2.2510e+02       
# span 10 =     1.7518,    28.3084      
# span 11 =     -0.167,     16.655      
# span 12 =     -0.241,     24.156      
# span 13 =     9.3250,    13.4001      
# span 14 = 0.0000e+00, 0.0000e+00      
# interval = seconds: 0.25
# start_time = Apr 20 2022 07:05:48 [Instrument's time stamp, header]
# bad_flag = -9.990e-29
# <Sensors count="9" >
#   <sensor Channel="1" >
#     <!-- Count, Temperature -->
#     <TemperatureSensor SensorID="58" >
#       <SerialNumber>7809</SerialNumber>
#       <CalibrationDate>25-Sep-21</CalibrationDate>
#       <A0>1.23251324e-003</A0>
#       <A1>2.76322262e-004</A1>
#       <A2>-9.50188734e-007</A2>
#       <A3>1.71801404e-007</A3>
#       <Slope>1.00000000</Slope>
#       <Offset>0.0000</Offset>
#     </TemperatureSensor>
#   </sensor>
#   <sensor Channel="2" >
#     <!-- Frequency 0, Conductivity -->
#     <ConductivitySensor SensorID="3" >
#       <SerialNumber>7809</SerialNumber>
#       <CalibrationDate>25-Sep-21</CalibrationDate>
#       <UseG_J>1</UseG_J>
#       <!-- Cell const and series R are applicable only for wide range sensors. -->
#       <SeriesR>0.0000</SeriesR>
#       <CellConst>2000.0000</CellConst>
#       <ConductivityType>0</ConductivityType>
#       <Coefficients equation="0" >
#         <A>0.00000000e+000</A>
#         <B>0.00000000e+000</B>
#         <C>0.00000000e+000</C>
#         <D>0.00000000e+000</D>
#         <M>0.0</M>
#         <CPcor>-9.57000000e-008</CPcor>
#       </Coefficients>
#       <Coefficients equation="1" >
#         <G>-1.00443970e+000</G>
#         <H>1.26460406e-001</H>
#         <I>-7.85436262e-005</I>
#         <J>2.21093811e-005</J>
#         <CPcor>-9.57000000e-008</CPcor>
#         <CTcor>3.2500e-006</CTcor>
#         <!-- WBOTC not applicable unless ConductivityType = 1. -->
#         <WBOTC>0.00000000e+000</WBOTC>
#       </Coefficients>
#       <Slope>1.00000000</Slope>
#       <Offset>0.00000</Offset>
#     </ConductivitySensor>
#   </sensor>
#   <sensor Channel="3" >
#     <!-- Count, Pressure, Strain Gauge -->
#     <PressureSensor SensorID="46" >
#       <SerialNumber>7809</SerialNumber>
#       <CalibrationDate>10-Sep-21</CalibrationDate>
#       <PA0>4.78919585e-002</PA0>
#       <PA1>4.85365526e-004</PA1>
#       <PA2>-3.68927597e-012</PA2>
#       <PTEMPA0>-5.40164371e+001</PTEMPA0>
#       <PTEMPA1>5.39065456e+001</PTEMPA1>
#       <PTEMPA2>-2.19411190e-002</PTEMPA2>
#       <PTCA0>5.25494622e+005</PTCA0>
#       <PTCA1>1.32519328e+001</PTCA1>
#       <PTCA2>-3.88927502e-001</PTCA2>
#       <PTCB0>2.51668750e+001</PTCB0>
#       <PTCB1>3.75000000e-004</PTCB1>
#       <PTCB2>0.00000000e+000</PTCB2>
#       <Offset>0.000000</Offset>
#     </PressureSensor>
#   </sensor>
#   <sensor Channel="4" >
#     <!-- A/D voltage 0, Oxygen, SBE 43 -->
#     <OxygenSensor SensorID="38" >
#       <SerialNumber>0434</SerialNumber>
#       <CalibrationDate>25-Sep-21</CalibrationDate>
#       <Use2007Equation>1</Use2007Equation>
#       <CalibrationCoefficients equation="0" >
#         <!-- Coefficients for Owens-Millard equation. -->
#         <Boc>0.0000</Boc>
#         <Soc>0.0000e+000</Soc>
#         <offset>0.0000</offset>
#         <Pcor>0.00e+000</Pcor>
#         <Tcor>0.0000</Tcor>
#         <Tau>0.0</Tau>
#       </CalibrationCoefficients>
#       <CalibrationCoefficients equation="1" >
#         <!-- Coefficients for Sea-Bird equation - SBE calibration in 2007 and later. -->
#         <Soc>4.7287e-001</Soc>
#         <offset>-0.5046</offset>
#         <A>-3.6094e-003</A>
#         <B> 1.1544e-004</B>
#         <C>-1.3802e-006</C>
#         <D0> 2.5826e+000</D0>
#         <D1> 1.92634e-004</D1>
#         <D2>-4.64803e-002</D2>
#         <E> 3.6000e-002</E>
#         <Tau20> 0.7700</Tau20>
#         <H1>-3.3000e-002</H1>
#         <H2> 5.0000e+003</H2>
#         <H3> 1.4500e+003</H3>
#       </CalibrationCoefficients>
#     </OxygenSensor>
#   </sensor>
#   <sensor Channel="5" >
#     <!-- A/D voltage 1, PAR/Logarithmic, Satlantic -->
#     <PARLog_SatlanticSensor SensorID="76" >
#       <SerialNumber>1122</SerialNumber>
#       <CalibrationDate>08-Sep-2021</CalibrationDate>
#       <a0>9.6751e-001</a0>
#       <a1>8.0992e-001</a1>
#       <Im>1.3589e+000</Im>
#       <Multiplier>1.0000e+000</Multiplier>
#     </PARLog_SatlanticSensor>
#   </sensor>
#   <sensor Channel="6" >
#     <!-- A/D voltage 2, pH -->
#     <pH_Sensor SensorID="43" >
#       <SerialNumber>0363</SerialNumber>
#       <CalibrationDate>16-Sep-21</CalibrationDate>
#       <Slope>4.5144</Slope>
#       <Offset>2.4957</Offset>
#     </pH_Sensor>
#   </sensor>
#   <sensor Channel="7" >
#     <!-- A/D voltage 3, Oxidation Reduction Potential -->
#     <OxidationReductionPotentialSensor SensorID="41" >
#       <SerialNumber>0363</SerialNumber>
#       <CalibrationDate>16-Sep-21</CalibrationDate>
#       <B>2.499480</B>
#       <M>-0.496195</M>
#       <Offset>0.0</Offset>
#     </OxidationReductionPotentialSensor>
#   </sensor>
#   <sensor Channel="8" >
#     <!-- A/D voltage 4, Fluorometer, WET Labs ECO-AFL/FL -->
#     <FluoroWetlabECO_AFL_FL_Sensor SensorID="20" >
#       <SerialNumber>FLNTURT-2496</SerialNumber>
#       <CalibrationDate>02-Sep-2021</CalibrationDate>
#       <ScaleFactor>4.80000000e+001</ScaleFactor>
#       <!-- Dark output -->
#       <Vblank>0.0550</Vblank>
#     </FluoroWetlabECO_AFL_FL_Sensor>
#   </sensor>
#   <sensor Channel="9" >
#     <!-- A/D voltage 5, Turbidity Meter, WET Labs, ECO-NTU -->
#     <TurbidityMeter SensorID="67" >
#       <SerialNumber>FLNTURT-2496</SerialNumber>
#       <CalibrationDate>02-Sep-2021</CalibrationDate>
#       <ScaleFactor>197.000000</ScaleFactor>
#       <!-- Dark output -->
#       <DarkVoltage>0.070000</DarkVoltage>
#     </TurbidityMeter>
#   </sensor>
# </Sensors>
# datcnv_date = May 03 2022 19:35:13, 7.26.7.129 [datcnv_vars = 14]
# datcnv_in = C:\R\Reservoirs\Data\DataNotYetUploadedToEDI\Raw_CTD\RawDownloads\050222_bvr50_0001.hex C:\R\Reservoirs\Data\DataNotYetUploadedToEDI\Raw_CTD\SBE19plusV2_7809.xmlcon
# datcnv_skipover = 0
# datcnv_ox_hysteresis_correction = yes
# datcnv_ox_tau_correction = yes
# filter_date = May 03 2022 19:52:12, 7.26.7.129
# filter_in = C:\R\Reservoirs\Data\DataNotYetUploadedToEDI\Raw_CTD\RawDownloads\050222_bvr50_0001.cnv
# filter_low_pass_tc_A = 0.030
# filter_low_pass_tc_B = 0.150
# filter_low_pass_A_vars = sbeox0Mg/L prdM prdE tv290C
# filter_low_pass_B_vars = depFM dz/dtM sbeox0PS specc c0uS/cm flECO-AFL ph orp par/sat/log turbWETntu0
# alignctd_date = May 03 2022 19:54:32, 7.26.7.129
# alignctd_in = C:\R\Reservoirs\Data\DataNotYetUploadedToEDI\Raw_CTD\RawDownloads\050222_bvr50_0001.cnv
# alignctd_adv = dz/dtM 1.000, sbeox0PS 1.000, specc 1.000, c0uS/cm 1.000, flECO-AFL 1.000, ph 1.000, orp 1.000, turbWETntu0 1.000                                                                                                   
# file_type = ascii
*END*
     -0.150      0.143     9.8802     94.295     92.953  71.210745    -0.0258      6.079   142.9047 2.2150e+02    27.5861     -0.167     -0.241    12.9960 0.0000e+00
     -0.091      0.176     9.8599     94.638     92.839  71.177044    -0.0059      6.302   147.8756 1.8956e+02    28.3084     -0.091     -0.133    13.0996 0.0000e+00
     -0.017      0.194     9.8447     95.062     92.770  71.151343     0.0231      6.428   152.2285 1.6183e+02    27.7916     -0.012     -0.018    13.1943 0.0000e+00
      0.050      0.194     9.8465     95.533     92.760  71.154122     0.2170      6.497   155.4409 1.5495e+02    21.2694      0.051      0.074    13.2592 0.0000e+00
      0.104      0.176     9.8613     96.028     92.748  71.147133     0.5650      6.534   157.8925 1.6089e+02     9.3985      0.109      0.158    13.3099 0.0000e+00
      0.142      0.145     9.8914     96.494     92.729  71.130362     0.7607      6.549   160.0166 1.6923e+02     2.9655      0.143      0.209    13.3350 0.0000e+00
      0.167      0.113     9.9352     96.872     92.748  71.141912     0.7852      6.555   162.1081 1.7415e+02     2.3796      0.166      0.242    13.3485 0.0000e+00
      0.185      0.084     9.9835     97.125     92.770  71.159723     0.7945      6.561   163.9944 1.7330e+02     2.3143      0.182      0.264    13.3518 0.0000e+00
      0.202      0.059    10.0370     97.205     92.758  71.155144     0.8071      6.572   165.5298 1.6010e+02     2.3470      0.198      0.287    13.3537 0.0000e+00
      0.217      0.040    10.0898     97.077     92.746  71.150079     0.8129      6.587   167.1643 1.3789e+02     2.3653      0.214      0.310    13.3504 0.0000e+00
      0.227      0.025    10.1294     96.668     92.757  71.162015     0.8059      6.603   168.9582 1.2701e+02     2.3302      0.226      0.328    13.3476 0.0000e+00
      0.230      0.014    10.1589     95.860     92.766  71.172411     0.8061      6.617   170.5277 1.2583e+02     2.3329      0.228      0.331    13.3489 0.0000e+00
      0.227      0.005    10.1667     94.579     92.731  71.148734     0.8146      6.628   172.0303 1.2349e+02     2.3982      0.222      0.323    13.3523 0.0000e+00
      0.222      0.000    10.1544     92.852     92.703  71.129843     0.8181      6.637   173.7901 1.2003e+02     2.4363      0.217      0.315    13.3544 0.0000e+00
      0.220     -0.002    10.1187     90.905     92.708  71.134572     0.8147      6.645   175.6301 1.1329e+02     2.4171      0.214      0.312    13.3559 0.0000e+00
      0.222     -0.001    10.0342     88.992     92.717  71.142395     0.8067      6.652   177.4141 1.1299e+02     2.3375      0.217      0.315    13.3576 0.0000e+00
      0.224      0.001     9.9028     87.238     92.741  71.160904     0.7954      6.658   179.3573 1.2423e+02     2.1910      0.221      0.320    13.3599 0.0000e+00
      0.225      0.001     9.7111     85.783     92.751  71.167788     0.7871      6.664   181.4866 1.2965e+02     2.0809      0.222      0.322    13.3613 0.0000e+00
      0.225      0.001     9.4942     84.716     92.745  71.162108     0.7895      6.668   183.4562 1.2322e+02     2.0649      0.222      0.321    13.3619 0.0000e+00
      0.224     -0.001     9.2960     84.028     92.739  71.155758     0.7988      6.670   184.9325 1.1996e+02     2.1004      0.220      0.319    13.3621 0.0000e+00
      0.224     -0.004     9.1032     83.624     92.739  71.154523     0.8085      6.673   185.8283 1.2141e+02     2.1342      0.220      0.319    13.3619 0.0000e+00
      0.224     -0.009     8.9493     83.330     92.733  71.147168     0.8063      6.676   186.3710 1.1958e+02     2.1319      0.220      0.319    13.3617 0.0000e+00
      0.223     -0.015     8.8384     83.019     92.715  71.130363     0.7891      6.678   186.8489 1.1543e+02     2.1066      0.219      0.318    13.3608 0.0000e+00
      0.220     -0.022     8.7687     82.669     92.730  71.141899     0.7752      6.680   187.3900 1.1302e+02     2.1020      0.218      0.316    13.3603 0.0000e+00
      0.213     -0.030     8.7358     82.358     92.751  71.159600     0.7800      6.681   188.0946 1.1427e+02     2.1098      0.211      0.307    13.3604 0.0000e+00
      0.203     -0.036     8.7092     82.151     92.741  71.153815     0.7966      6.682   188.8295 1.1534e+02     2.0990      0.199      0.290    13.3585 0.0000e+00
      0.190     -0.038     8.6791     82.035     92.716  71.135484     0.8015      6.685   189.3916 1.1303e+02     2.0737      0.186      0.270    13.3560 0.0000e+00
      0.177     -0.035     8.6376     81.937     92.705  71.128529     0.7979      6.689   190.0728 1.0820e+02     2.1115      0.174      0.252    13.3560 0.0000e+00
      0.166     -0.030     8.6022     81.806     92.709  71.133254     0.8024      6.693   190.9582 1.0392e+02     2.2480      0.162      0.235    13.3574 0.0000e+00
