* Sea-Bird SBE19plus  Data File:
* FileName = C:\DATA\050718_fcr_0001.hex
* Software version 2.6.3.104 SB_Terminal.dll
* Temperature SN = 7809
* Conductivity SN = 7809
* System UpLoad Time = May 07 2018 16:23:31
* <ApplicationData>
* <Seaterm232>
* <SoftwareVersion>2.6.3.104</SoftwareVersion>
* <BuildDate>30-Jun-2017</BuildDate>
* </Seaterm232>
* </ApplicationData>
* cast   1 07 May 2018 14:27:07 samples 1 to 764, avg = 1, stop = mag switch
# nquan = 15
# nvalues = 691                         
# units = specified
# name 0 = depFM: Depth [fresh water, m]
# name 1 = dz/dtM: Descent Rate [m/s]
# name 2 = sbeox0Mg/L: Oxygen, SBE 43 [mg/l]
# name 3 = sbeox0PS: Oxygen, SBE 43 [% saturation]
# name 4 = specc: Specific Conductance [uS/cm]
# name 5 = c0uS/cm: Conductivity [uS/cm]
# name 6 = flECO-AFL: Fluorescence, WET Labs ECO-AFL/FL [mg/m^3]
# name 7 = ph: pH
# name 8 = orp: Oxidation Reduction Potential [mV]
# name 9 = par/sat/log: PAR/Logarithmic, Satlantic
# name 10 = turbWETntu0: Turbidity, WET Labs ECO [NTU]
# name 11 = prdM: Pressure, Strain Gauge [db]
# name 12 = prdE: Pressure, Strain Gauge [psi]
# name 13 = tv290C: Temperature [ITS-90, deg C]
# name 14 = flag:  0.000e+00
# span 0 =     -0.560,      2.440       
# span 1 =     -0.131,      0.235       
# span 2 =     5.4449,    11.8667       
# span 3 =     58.761,    116.938       
# span 4 =      0.834,     37.057       
# span 5 =   0.763165,  32.115306       
# span 6 =    -2.1820,     2.9786       
# span 7 =      5.150,      7.576       
# span 8 =  -647.6872,  1152.8364       
# span 9 = 1.3284e+02, 2.0287e+03       
# span 10 =    -5.6564,     2.7374      
# span 11 =     -0.550,      2.393      
# span 12 =     -0.797,      3.471      
# span 13 =    14.6350,    20.7384      
# span 14 = 0.0000e+00, 0.0000e+00      
# interval = seconds: 0.25
# start_time = May 07 2018 14:27:07 [Instrument's time stamp, header]
# bad_flag = -9.990e-29
# <Sensors count="9" >
#   <sensor Channel="1" >
#     <!-- Count, Temperature -->
#     <TemperatureSensor SensorID="58" >
#       <SerialNumber>7809</SerialNumber>
#       <CalibrationDate>09-Mar-18</CalibrationDate>
#       <A0>1.21093245e-003</A0>
#       <A1>2.84356597e-004</A1>
#       <A2>-1.94507398e-006</A2>
#       <A3>2.12806664e-007</A3>
#       <Slope>1.00000000</Slope>
#       <Offset>0.0000</Offset>
#     </TemperatureSensor>
#   </sensor>
#   <sensor Channel="2" >
#     <!-- Frequency 0, Conductivity -->
#     <ConductivitySensor SensorID="3" >
#       <SerialNumber>7809</SerialNumber>
#       <CalibrationDate>09-Mar-18</CalibrationDate>
#       <UseG_J>1</UseG_J>
#       <!-- Cell const and series R are applicable only for wide range sensors. -->
#       <SeriesR>0.0000</SeriesR>
#       <CellConst>2000.0000</CellConst>
#       <ConductivityType>0</ConductivityType>
#       <Coefficients equation="0" >
#         <A>0.00000000e+000</A>
#         <B>0.00000000e+000</B>
#         <C>0.00000000e+000</C>
#         <D>0.00000000e+000</D>
#         <M>0.0</M>
#         <CPcor>-9.57000000e-008</CPcor>
#       </Coefficients>
#       <Coefficients equation="1" >
#         <G>-1.00672082e+000</G>
#         <H>1.26906489e-001</H>
#         <I>-1.40584351e-004</I>
#         <J>2.47837121e-005</J>
#         <CPcor>-9.57000000e-008</CPcor>
#         <CTcor>3.2500e-006</CTcor>
#         <!-- WBOTC not applicable unless ConductivityType = 1. -->
#         <WBOTC>0.00000000e+000</WBOTC>
#       </Coefficients>
#       <Slope>1.00000000</Slope>
#       <Offset>0.00000</Offset>
#     </ConductivitySensor>
#   </sensor>
#   <sensor Channel="3" >
#     <!-- Count, Pressure, Strain Gauge -->
#     <PressureSensor SensorID="46" >
#       <SerialNumber>7809</SerialNumber>
#       <CalibrationDate>07-Mar-18</CalibrationDate>
#       <PA0>-4.08176359e-002</PA0>
#       <PA1>4.85188419e-004</PA1>
#       <PA2>-3.51168169e-012</PA2>
#       <PTEMPA0>-5.37806900e+001</PTEMPA0>
#       <PTEMPA1>5.36620721e+001</PTEMPA1>
#       <PTEMPA2>4.87214332e-002</PTEMPA2>
#       <PTCA0>5.25213435e+005</PTCA0>
#       <PTCA1>1.79532409e+000</PTCA1>
#       <PTCA2>-2.84353509e-001</PTCA2>
#       <PTCB0>2.51668750e+001</PTCB0>
#       <PTCB1>3.75000000e-004</PTCB1>
#       <PTCB2>0.00000000e+000</PTCB2>
#       <Offset>0.000000</Offset>
#     </PressureSensor>
#   </sensor>
#   <sensor Channel="4" >
#     <!-- A/D voltage 0, pH -->
#     <pH_Sensor SensorID="43" >
#       <SerialNumber>0363</SerialNumber>
#       <CalibrationDate>16-Mar-18</CalibrationDate>
#       <Slope>4.6194</Slope>
#       <Offset>2.5947</Offset>
#     </pH_Sensor>
#   </sensor>
#   <sensor Channel="5" >
#     <!-- A/D voltage 1, Oxidation Reduction Potential -->
#     <OxidationReductionPotentialSensor SensorID="41" >
#       <SerialNumber>0363</SerialNumber>
#       <CalibrationDate>16-Mar-18</CalibrationDate>
#       <B>2.499480</B>
#       <M>-0.496195</M>
#       <Offset>0.0</Offset>
#     </OxidationReductionPotentialSensor>
#   </sensor>
#   <sensor Channel="6" >
#     <!-- A/D voltage 2, Oxygen, SBE 43 -->
#     <OxygenSensor SensorID="38" >
#       <SerialNumber>0434</SerialNumber>
#       <CalibrationDate>13-Mar-18</CalibrationDate>
#       <Use2007Equation>1</Use2007Equation>
#       <CalibrationCoefficients equation="0" >
#         <!-- Coefficients for Owens-Millard equation. -->
#         <Boc>0.0000</Boc>
#         <Soc>0.0000e+000</Soc>
#         <offset>0.0000</offset>
#         <Pcor>0.00e+000</Pcor>
#         <Tcor>0.0000</Tcor>
#         <Tau>0.0</Tau>
#       </CalibrationCoefficients>
#       <CalibrationCoefficients equation="1" >
#         <!-- Coefficients for Sea-Bird equation - SBE calibration in 2007 and later. -->
#         <Soc>4.5718e-001</Soc>
#         <offset>-0.6113</offset>
#         <A>-4.0649e-003</A>
#         <B> 2.0945e-004</B>
#         <C>-3.3182e-006</C>
#         <D0> 2.5826e+000</D0>
#         <D1> 1.92634e-004</D1>
#         <D2>-4.64803e-002</D2>
#         <E> 3.6000e-002</E>
#         <Tau20> 1.2200</Tau20>
#         <H1>-3.3000e-002</H1>
#         <H2> 5.0000e+003</H2>
#         <H3> 1.4500e+003</H3>
#       </CalibrationCoefficients>
#     </OxygenSensor>
#   </sensor>
#   <sensor Channel="7" >
#     <!-- A/D voltage 3, PAR/Logarithmic, Satlantic -->
#     <PARLog_SatlanticSensor SensorID="76" >
#       <SerialNumber>1122</SerialNumber>
#       <CalibrationDate>22-Jun-2017</CalibrationDate>
#       <a0>9.6090e-001</a0>
#       <a1>8.0780e-001</a1>
#       <Im>1.3589e+000</Im>
#       <Multiplier>1.0000e+000</Multiplier>
#     </PARLog_SatlanticSensor>
#   </sensor>
#   <sensor Channel="8" >
#     <!-- A/D voltage 4, Fluorometer, WET Labs ECO-AFL/FL -->
#     <FluoroWetlabECO_AFL_FL_Sensor SensorID="20" >
#       <SerialNumber>FLNTURT-2496</SerialNumber>
#       <CalibrationDate>25-Jan-2017</CalibrationDate>
#       <ScaleFactor>5.30000000e+001</ScaleFactor>
#       <!-- Dark output -->
#       <Vblank>0.0560</Vblank>
#     </FluoroWetlabECO_AFL_FL_Sensor>
#   </sensor>
#   <sensor Channel="9" >
#     <!-- A/D voltage 5, Turbidity Meter, WET Labs, ECO-NTU -->
#     <TurbidityMeter SensorID="67" >
#       <SerialNumber>FLNTURT-2496</SerialNumber>
#       <CalibrationDate>25-Jan-2017</CalibrationDate>
#       <ScaleFactor>176.000000</ScaleFactor>
#       <!-- Dark output -->
#       <DarkVoltage>0.072000</DarkVoltage>
#     </TurbidityMeter>
#   </sensor>
# </Sensors>
# datcnv_date = May 07 2018 16:36:04, 7.26.7.114 [datcnv_vars = 14]
# datcnv_in = C:\DATA\050718_fcr10.hex C:\DATA\SBE19plusV2_7809.xmlcon
# datcnv_skipover = 0
# datcnv_ox_hysteresis_correction = yes
# datcnv_ox_tau_correction = yes
# filter_date = May 07 2018 16:36:36, 7.26.7.114
# filter_in = C:\DATA\050718_fcr10.cnv
# filter_low_pass_tc_A = 0.030
# filter_low_pass_tc_B = 0.150
# filter_low_pass_A_vars = prdM prdE tv290C
# filter_low_pass_B_vars = depFM dz/dtM sbeox0Mg/L sbeox0PS specc c0uS/cm flECO-AFL ph orp par/sat/log turbWETntu0
# alignctd_date = May 07 2018 16:36:57, 7.26.7.114
# alignctd_in = C:\DATA\050718_fcr10.cnv
# alignctd_adv = dz/dtM 1.000, sbeox0Mg/L 1.000, sbeox0PS 1.000, specc 1.000, c0uS/cm 1.000, flECO-AFL 1.000, ph 1.000, orp 1.000, turbWETntu0 1.000                                                                                 
# file_type = ascii
*END*
     -0.560 2.4158e-18     8.7826     98.017      0.847   0.774570     0.0261      5.986  1037.0103 1.4543e+03     0.2597     -0.549     -0.796    20.7348 0.0000e+00
     -0.559 2.6574e-17     8.7812     98.003      0.834   0.763165     0.0276      6.049   839.4714 1.4371e+03     0.2629     -0.548     -0.796    20.7355 0.0000e+00
     -0.559 2.9231e-16     8.7812     98.002      0.847   0.774876     0.0316      6.152   577.3921 1.4052e+03     0.3307     -0.548     -0.795    20.7363 0.0000e+00
     -0.559 3.2154e-15     8.7822     98.012      0.863   0.789341     0.0097      6.195   324.9974 1.1348e+03     0.9281     -0.548     -0.795    20.7370 0.0000e+00
     -0.559 3.5370e-14     8.7812     97.997      0.887   0.811238    -0.0254      6.157    88.3920 6.8626e+02     2.0535     -0.548     -0.795    20.7378 0.0000e+00
     -0.559 3.8907e-13     8.7805     97.985      0.928   0.849390    -0.0346      6.104  -117.6033 6.1824e+02     2.7067     -0.548     -0.795    20.7384 0.0000e+00
     -0.560 4.2797e-12     8.7807     97.981      0.952   0.870154    -0.0367      6.072  -286.4912 7.9322e+02     2.7217     -0.549     -0.797    20.7383 0.0000e+00
     -0.560 4.7077e-11     8.7801     97.969      0.954   0.872062    -0.0790      6.042  -472.1064 7.6614e+02     2.0218     -0.549     -0.796    20.7374 0.0000e+00
     -0.560 5.1785e-10     8.7802     97.967      0.954   0.872453    -0.1420      5.990  -645.4635 7.7866e+02     0.7444     -0.549     -0.796    20.7360 0.0000e+00
     -0.560 5.6963e-09     8.7811     97.972      0.957   0.874883    -0.1644      5.957  -377.5651 9.2289e+02     0.0938     -0.549     -0.796    20.7336 0.0000e+00
     -0.560 6.2659e-08     8.7810     97.960      0.986   0.901435    -0.1569      5.967   433.2158 9.9058e+02     0.0457     -0.549     -0.796    20.7307 0.0000e+00
     -0.560 6.8925e-07     8.7810     97.940      1.028   0.939849    -0.1887      6.154   958.4221 1.0626e+03    -0.4473     -0.549     -0.796    20.7275 0.0000e+00
     -0.559      0.000     8.7828     97.935      1.049   0.958860    -0.2537      6.322   603.1221 1.0915e+03    -1.3504     -0.548     -0.795    20.7258 0.0000e+00
     -0.559      0.000     8.7845     97.930      1.100   1.004474    -0.2907      6.014  -163.8585 8.8122e+02    -1.8398     -0.548     -0.795    20.7239 0.0000e+00
     -0.559      0.001     8.7872     97.920      1.217   1.110876    -0.3420      5.575  -647.6872 7.9514e+02    -2.0008     -0.548     -0.795    20.7201 0.0000e+00
     -0.559      0.005     8.8018     97.916      1.774   1.611221    -0.8288      5.278  -370.2762 1.0268e+03    -2.9916     -0.548     -0.795    20.7071 0.0000e+00
     -0.559      0.016     8.8400     97.919      6.488   5.849233    -1.7099      5.150   578.7438 1.1618e+03    -4.7251     -0.548     -0.795    20.6952 0.0000e+00
     -0.559      0.033     8.8921     97.926     17.958  16.129403    -2.1820      5.369  1152.8364 1.1277e+03    -5.6564     -0.548     -0.795    20.6789 0.0000e+00
     -0.556      0.057     8.9371     97.931     29.503  26.414962    -2.1622      5.734   932.4461 1.0896e+03    -5.6455     -0.550     -0.797    20.6764 0.0000e+00
     -0.543      0.085     8.9692     97.936     34.670  30.944869    -1.4252      6.189   434.6293 1.1016e+03    -4.3801     -0.540     -0.783    20.6396 0.0000e+00
     -0.514      0.117     8.9922     97.936     35.500  31.600133    -0.0529      6.688   165.0088 1.2197e+03    -2.0144     -0.507     -0.735    20.3909 0.0000e+00
     -0.474      0.152     9.0103     97.934     35.373  31.416308     0.6999      7.043   146.9759 1.4252e+03    -0.7246     -0.465     -0.675    20.0331 0.0000e+00
     -0.430      0.185     9.0287     97.940     35.207  31.199062     0.7749      7.247   151.2905 1.6184e+03    -0.6253     -0.423     -0.613    19.7812 0.0000e+00
     -0.381      0.213     9.0508     97.980     35.141  31.069135     0.7909      7.347   159.6165 1.7583e+03    -0.5705     -0.378     -0.548    19.6166 0.0000e+00
     -0.324      0.230     9.0809     98.135     35.190  31.051943     0.8376      7.391   169.4353 1.8712e+03    -0.0616     -0.321     -0.465    19.4927 0.0000e+00
     -0.256      0.235     9.1225     98.462     35.314  31.118128     0.9255      7.395   178.1198 1.9427e+03     0.8284     -0.253     -0.367    19.4026 0.0000e+00
     -0.182      0.227     9.1730     98.924     35.479  31.234234     0.9805      7.360   185.2910 1.9691e+03     1.3088     -0.178     -0.259    19.3081 0.0000e+00
     -0.113      0.205     9.2298     99.484     35.589  31.312574     0.9888      7.301   189.2036 1.9786e+03     1.3525     -0.104     -0.150    19.1950 0.0000e+00
     -0.059      0.171     9.2899    100.098     35.592  31.303197     0.9793      7.245   190.1504 1.9587e+03     1.2956     -0.052     -0.074    19.1059 0.0000e+00
     -0.022      0.133     9.3428    100.645     35.538  31.247864     0.9670      7.205   191.6624 1.7753e+03     1.1710     -0.018     -0.027    19.0481 0.0000e+00
      0.002      0.098     9.3843    101.071     35.438  31.151609     0.9687      7.174   195.6975 1.5334e+03     1.0970      0.008      0.010    19.0075 0.0000e+00
      0.012      0.073     9.4161    101.388     35.308  31.028502     0.9728      7.138   201.0810 1.5103e+03     1.1016      0.014      0.020    18.9832 0.0000e+00
      0.017      0.055     9.4277    101.488     35.247  30.966027     0.9705      7.097   205.6467 1.4859e+03     1.1049      0.013      0.019    18.9682 0.0000e+00
      0.027      0.040     9.3941    101.103     35.258  30.967798     0.9678      7.054   207.7089 1.1926e+03     1.0768      0.025      0.036    18.9586 0.0000e+00
      0.044      0.022     9.3101    100.177     35.288  30.986403     0.9677      7.012   207.2592 9.4674e+02     1.0659      0.044      0.063    18.9491 0.0000e+00
      0.059      0.000     9.2008     98.987     35.310  31.000440     0.9788      6.975   206.7482 9.7143e+02     1.0954      0.062      0.090    18.9345 0.0000e+00
      0.064     -0.025     9.0647     97.525     35.320  31.010503     1.0005      6.948   207.2088 9.6659e+02     1.1286      0.070      0.101    18.9230 0.0000e+00
      0.052     -0.047     8.8866     95.633     35.420  31.108071     1.0186      6.931   207.8381 1.0119e+03     1.1315      0.057      0.082    18.9127 0.0000e+00
      0.024     -0.060     8.6822     93.470     35.613  31.291011     1.0327      6.917   208.7644 1.2869e+03     1.0996      0.028      0.039    18.8998 0.0000e+00
     -0.011     -0.061     8.4823     91.353     35.700  31.380676     1.0418      6.903   210.0631 1.4596e+03     1.0795     -0.015     -0.021    18.8915 0.0000e+00
     -0.038     -0.053     8.3073     89.493     35.673  31.366608     1.0555      6.891   211.1502 1.3767e+03     1.1317     -0.046     -0.065    18.8910 0.0000e+00
     -0.046     -0.038     8.1611     87.937     35.746  31.438481     1.0798      6.888   211.9285 1.1727e+03     1.2427     -0.050     -0.072    18.9054 0.0000e+00
     -0.040     -0.018     8.0382     86.631     35.937  31.614592     1.0962      6.891   213.0200 9.4744e+02     1.3235     -0.040     -0.056    18.9285 0.0000e+00
     -0.033      0.003     7.9314     85.498     36.046  31.717687     1.1063      6.894   214.3665 6.8872e+02     1.3450     -0.028     -0.040    18.9478 0.0000e+00
     -0.033      0.021     7.8410     84.537     35.984  31.668839     1.1103      6.895   215.3892 4.6622e+02     1.3205     -0.029     -0.042    18.9615 0.0000e+00
     -0.037      0.032     7.7664     83.738     35.898  31.595574     1.1171      6.892   216.3515 4.4411e+02     1.2404     -0.042     -0.060    18.9703 0.0000e+00
     -0.032      0.033     7.6967     82.987     35.968  31.657481     1.1421      6.884   217.3978 5.5429e+02     1.1703     -0.040     -0.058    18.9808 0.0000e+00
     -0.010      0.027     7.6252     82.218     36.181  31.845751     1.1647      6.880   218.4035 6.9859e+02     1.1750     -0.011     -0.016    18.9919 0.0000e+00
      0.014      0.017     7.5580     81.498     36.388  32.030129     1.1703      6.885   219.9934 7.4144e+02     1.2053      0.020      0.029    19.0002 0.0000e+00
      0.024      0.002     7.5020     80.898     36.476  32.108472     1.1545      6.896   222.1666 5.7243e+02     1.1711      0.031      0.044    19.0047 0.0000e+00
      0.015     -0.014     7.4585     80.427     36.461  32.094366     1.1213      6.909   224.1156 4.5280e+02     1.0971      0.021      0.029    19.0027 0.0000e+00
     -0.006     -0.027     7.4236     80.047     36.412  32.050110     1.0993      6.921   225.6631 4.3134e+02     1.0730     -0.005     -0.008    19.0025 0.0000e+00
     -0.027     -0.033     7.3933     79.719     36.377  32.017953     1.0994      6.926   226.1646 4.9064e+02     1.1234     -0.030     -0.044    19.0071 0.0000e+00
     -0.037     -0.029     7.3641     79.405     36.382  32.023107     1.1317      6.928   225.4471 7.9772e+02     1.2183     -0.041     -0.059    19.0107 0.0000e+00
     -0.037     -0.018     7.3325     79.063     36.411  32.048918     1.1862      6.931   225.1613 9.5886e+02     1.2748     -0.038     -0.055    19.0084 0.0000e+00
     -0.034     -0.001     7.3027     78.741     36.443  32.075986     1.2165      6.935   225.8071 6.8349e+02     1.2876     -0.031     -0.045    19.0042 0.0000e+00
     -0.034      0.019     7.2841     78.538     36.467  32.096344     1.2226      6.935   228.8671 5.2189e+02     1.3122     -0.031     -0.045    19.0045 0.0000e+00
     -0.035      0.040     7.2831     78.526     36.477  32.104521     1.2141      6.934   234.0242 5.6518e+02     1.3591     -0.038     -0.054    19.0057 0.0000e+00
     -0.030      0.062     7.2954     78.661     36.483  32.111342     1.1961      6.936   236.9681 5.2220e+02     1.3964     -0.034     -0.051    19.0052 0.0000e+00
     -0.011      0.082     7.3054     78.776     36.485  32.115306     1.1799      6.932   237.6169 7.4130e+02     1.3655     -0.015     -0.021    19.0035 0.0000e+00
      0.021      0.097     7.3024     78.746     36.453  32.088938     1.1657      6.922   237.9113 1.2457e+03     1.3223      0.019      0.028    19.0031 0.0000e+00
      0.059      0.103     7.2829     78.528     36.408  32.046579     1.1255      6.916   237.7748 1.3357e+03     1.2706      0.060      0.087    19.0013 0.0000e+00
      0.094      0.097     7.2448     78.101     36.346  31.984219     1.0429      6.918   237.2573 9.8693e+02     1.1672      0.095      0.138    19.0022 0.0000e+00
      0.122      0.081     7.1954     77.541     36.201  31.843017     0.9848      6.926   236.8161 8.2636e+02     1.1098      0.123      0.180    19.0086 0.0000e+00
      0.140      0.061     7.1487     77.001     36.027  31.673032     0.9739      6.937   235.7958 7.9884e+02     1.0954      0.141      0.204    19.0107 0.0000e+00
      0.147      0.041     7.1100     76.542     35.944  31.580205     0.9763      6.949   235.4181 8.3497e+02     1.0848      0.145      0.211    19.0072 0.0000e+00
      0.149      0.024     7.0785     76.164     35.925  31.546266     1.0219      6.963   237.0675 9.9107e+02     1.1035      0.146      0.211    18.9964 0.0000e+00
      0.150      0.012     7.0537     75.872     35.905  31.516700     1.1124      6.979   238.1865 9.9425e+02     1.1380      0.146      0.212    18.9788 0.0000e+00
