* Sea-Bird SBE19plus  Data File:
* FileName = C:\DATA\050718_fcr_0002.hex
* Software version 2.6.3.104 SB_Terminal.dll
* Temperature SN = 7809
* Conductivity SN = 7809
* System UpLoad Time = May 07 2018 16:23:56
* <ApplicationData>
* <Seaterm232>
* <SoftwareVersion>2.6.3.104</SoftwareVersion>
* <BuildDate>30-Jun-2017</BuildDate>
* </Seaterm232>
* </ApplicationData>
* cast   2 07 May 2018 14:39:31 samples 765 to 1657, avg = 1, stop = mag switch
# nquan = 15
# nvalues = 812                         
# units = specified
# name 0 = depFM: Depth [fresh water, m]
# name 1 = dz/dtM: Descent Rate [m/s]
# name 2 = sbeox0Mg/L: Oxygen, SBE 43 [mg/l]
# name 3 = sbeox0PS: Oxygen, SBE 43 [% saturation]
# name 4 = specc: Specific Conductance [uS/cm]
# name 5 = c0uS/cm: Conductivity [uS/cm]
# name 6 = flECO-AFL: Fluorescence, WET Labs ECO-AFL/FL [mg/m^3]
# name 7 = ph: pH
# name 8 = orp: Oxidation Reduction Potential [mV]
# name 9 = par/sat/log: PAR/Logarithmic, Satlantic
# name 10 = turbWETntu0: Turbidity, WET Labs ECO [NTU]
# name 11 = prdM: Pressure, Strain Gauge [db]
# name 12 = prdE: Pressure, Strain Gauge [psi]
# name 13 = tv290C: Temperature [ITS-90, deg C]
# name 14 = flag:  0.000e+00
# span 0 =     -0.556,      3.759       
# span 1 =     -0.109,      0.216       
# span 2 =     5.4300,    10.9849       
# span 3 =     54.282,    109.710       
# span 4 =      0.718,     38.625       
# span 5 =   0.621175,  30.706194       
# span 6 =    -0.4487,   250.9991       
# span 7 =      6.095,      7.495       
# span 8 =   257.3455,  1240.2295       
# span 9 = 3.6496e+01, 1.5689e+03       
# span 10 =    -5.8931,   831.8411      
# span 11 =     -0.545,      3.688      
# span 12 =     -0.792,      5.348      
# span 13 =    10.8391,    18.9836      
# span 14 = 0.0000e+00, 0.0000e+00      
# interval = seconds: 0.25
# start_time = May 07 2018 14:39:31 [Instrument's time stamp, header]
# bad_flag = -9.990e-29
# <Sensors count="9" >
#   <sensor Channel="1" >
#     <!-- Count, Temperature -->
#     <TemperatureSensor SensorID="58" >
#       <SerialNumber>7809</SerialNumber>
#       <CalibrationDate>09-Mar-18</CalibrationDate>
#       <A0>1.21093245e-003</A0>
#       <A1>2.84356597e-004</A1>
#       <A2>-1.94507398e-006</A2>
#       <A3>2.12806664e-007</A3>
#       <Slope>1.00000000</Slope>
#       <Offset>0.0000</Offset>
#     </TemperatureSensor>
#   </sensor>
#   <sensor Channel="2" >
#     <!-- Frequency 0, Conductivity -->
#     <ConductivitySensor SensorID="3" >
#       <SerialNumber>7809</SerialNumber>
#       <CalibrationDate>09-Mar-18</CalibrationDate>
#       <UseG_J>1</UseG_J>
#       <!-- Cell const and series R are applicable only for wide range sensors. -->
#       <SeriesR>0.0000</SeriesR>
#       <CellConst>2000.0000</CellConst>
#       <ConductivityType>0</ConductivityType>
#       <Coefficients equation="0" >
#         <A>0.00000000e+000</A>
#         <B>0.00000000e+000</B>
#         <C>0.00000000e+000</C>
#         <D>0.00000000e+000</D>
#         <M>0.0</M>
#         <CPcor>-9.57000000e-008</CPcor>
#       </Coefficients>
#       <Coefficients equation="1" >
#         <G>-1.00672082e+000</G>
#         <H>1.26906489e-001</H>
#         <I>-1.40584351e-004</I>
#         <J>2.47837121e-005</J>
#         <CPcor>-9.57000000e-008</CPcor>
#         <CTcor>3.2500e-006</CTcor>
#         <!-- WBOTC not applicable unless ConductivityType = 1. -->
#         <WBOTC>0.00000000e+000</WBOTC>
#       </Coefficients>
#       <Slope>1.00000000</Slope>
#       <Offset>0.00000</Offset>
#     </ConductivitySensor>
#   </sensor>
#   <sensor Channel="3" >
#     <!-- Count, Pressure, Strain Gauge -->
#     <PressureSensor SensorID="46" >
#       <SerialNumber>7809</SerialNumber>
#       <CalibrationDate>07-Mar-18</CalibrationDate>
#       <PA0>-4.08176359e-002</PA0>
#       <PA1>4.85188419e-004</PA1>
#       <PA2>-3.51168169e-012</PA2>
#       <PTEMPA0>-5.37806900e+001</PTEMPA0>
#       <PTEMPA1>5.36620721e+001</PTEMPA1>
#       <PTEMPA2>4.87214332e-002</PTEMPA2>
#       <PTCA0>5.25213435e+005</PTCA0>
#       <PTCA1>1.79532409e+000</PTCA1>
#       <PTCA2>-2.84353509e-001</PTCA2>
#       <PTCB0>2.51668750e+001</PTCB0>
#       <PTCB1>3.75000000e-004</PTCB1>
#       <PTCB2>0.00000000e+000</PTCB2>
#       <Offset>0.000000</Offset>
#     </PressureSensor>
#   </sensor>
#   <sensor Channel="4" >
#     <!-- A/D voltage 0, pH -->
#     <pH_Sensor SensorID="43" >
#       <SerialNumber>0363</SerialNumber>
#       <CalibrationDate>16-Mar-18</CalibrationDate>
#       <Slope>4.6194</Slope>
#       <Offset>2.5947</Offset>
#     </pH_Sensor>
#   </sensor>
#   <sensor Channel="5" >
#     <!-- A/D voltage 1, Oxidation Reduction Potential -->
#     <OxidationReductionPotentialSensor SensorID="41" >
#       <SerialNumber>0363</SerialNumber>
#       <CalibrationDate>16-Mar-18</CalibrationDate>
#       <B>2.499480</B>
#       <M>-0.496195</M>
#       <Offset>0.0</Offset>
#     </OxidationReductionPotentialSensor>
#   </sensor>
#   <sensor Channel="6" >
#     <!-- A/D voltage 2, Oxygen, SBE 43 -->
#     <OxygenSensor SensorID="38" >
#       <SerialNumber>0434</SerialNumber>
#       <CalibrationDate>13-Mar-18</CalibrationDate>
#       <Use2007Equation>1</Use2007Equation>
#       <CalibrationCoefficients equation="0" >
#         <!-- Coefficients for Owens-Millard equation. -->
#         <Boc>0.0000</Boc>
#         <Soc>0.0000e+000</Soc>
#         <offset>0.0000</offset>
#         <Pcor>0.00e+000</Pcor>
#         <Tcor>0.0000</Tcor>
#         <Tau>0.0</Tau>
#       </CalibrationCoefficients>
#       <CalibrationCoefficients equation="1" >
#         <!-- Coefficients for Sea-Bird equation - SBE calibration in 2007 and later. -->
#         <Soc>4.5718e-001</Soc>
#         <offset>-0.6113</offset>
#         <A>-4.0649e-003</A>
#         <B> 2.0945e-004</B>
#         <C>-3.3182e-006</C>
#         <D0> 2.5826e+000</D0>
#         <D1> 1.92634e-004</D1>
#         <D2>-4.64803e-002</D2>
#         <E> 3.6000e-002</E>
#         <Tau20> 1.2200</Tau20>
#         <H1>-3.3000e-002</H1>
#         <H2> 5.0000e+003</H2>
#         <H3> 1.4500e+003</H3>
#       </CalibrationCoefficients>
#     </OxygenSensor>
#   </sensor>
#   <sensor Channel="7" >
#     <!-- A/D voltage 3, PAR/Logarithmic, Satlantic -->
#     <PARLog_SatlanticSensor SensorID="76" >
#       <SerialNumber>1122</SerialNumber>
#       <CalibrationDate>22-Jun-2017</CalibrationDate>
#       <a0>9.6090e-001</a0>
#       <a1>8.0780e-001</a1>
#       <Im>1.3589e+000</Im>
#       <Multiplier>1.0000e+000</Multiplier>
#     </PARLog_SatlanticSensor>
#   </sensor>
#   <sensor Channel="8" >
#     <!-- A/D voltage 4, Fluorometer, WET Labs ECO-AFL/FL -->
#     <FluoroWetlabECO_AFL_FL_Sensor SensorID="20" >
#       <SerialNumber>FLNTURT-2496</SerialNumber>
#       <CalibrationDate>25-Jan-2017</CalibrationDate>
#       <ScaleFactor>5.30000000e+001</ScaleFactor>
#       <!-- Dark output -->
#       <Vblank>0.0560</Vblank>
#     </FluoroWetlabECO_AFL_FL_Sensor>
#   </sensor>
#   <sensor Channel="9" >
#     <!-- A/D voltage 5, Turbidity Meter, WET Labs, ECO-NTU -->
#     <TurbidityMeter SensorID="67" >
#       <SerialNumber>FLNTURT-2496</SerialNumber>
#       <CalibrationDate>25-Jan-2017</CalibrationDate>
#       <ScaleFactor>176.000000</ScaleFactor>
#       <!-- Dark output -->
#       <DarkVoltage>0.072000</DarkVoltage>
#     </TurbidityMeter>
#   </sensor>
# </Sensors>
# datcnv_date = May 07 2018 16:36:04, 7.26.7.114 [datcnv_vars = 14]
# datcnv_in = C:\DATA\050718_fcr20.hex C:\DATA\SBE19plusV2_7809.xmlcon
# datcnv_skipover = 0
# datcnv_ox_hysteresis_correction = yes
# datcnv_ox_tau_correction = yes
# filter_date = May 07 2018 16:36:36, 7.26.7.114
# filter_in = C:\DATA\050718_fcr20.cnv
# filter_low_pass_tc_A = 0.030
# filter_low_pass_tc_B = 0.150
# filter_low_pass_A_vars = prdM prdE tv290C
# filter_low_pass_B_vars = depFM dz/dtM sbeox0Mg/L sbeox0PS specc c0uS/cm flECO-AFL ph orp par/sat/log turbWETntu0
# alignctd_date = May 07 2018 16:36:57, 7.26.7.114
# alignctd_in = C:\DATA\050718_fcr20.cnv
# alignctd_adv = dz/dtM 1.000, sbeox0Mg/L 1.000, sbeox0PS 1.000, specc 1.000, c0uS/cm 1.000, flECO-AFL 1.000, ph 1.000, orp 1.000, turbWETntu0 1.000                                                                                 
# file_type = ascii
*END*
     -0.555     -0.001     9.1749     97.406      0.718   0.621175    -0.4334      6.095  1240.2295 1.6537e+02    -1.4650     -0.544     -0.789    18.2436 0.0000e+00
     -0.555     -0.001     9.1745     97.404      0.719   0.621722    -0.4487      6.099  1240.2295 1.7486e+02    -1.4831     -0.544     -0.790    18.2435 0.0000e+00
     -0.555      0.000     9.1742     97.402      0.872   0.754568    -0.4451      6.107  1240.2295 1.9958e+02    -1.3788     -0.544     -0.790    18.2437 0.0000e+00
     -0.556      0.005     9.1736     97.402      2.721   2.354230    -0.3252      6.148  1240.2295 2.6914e+02    -0.1428     -0.545     -0.791    18.2442 0.0000e+00
     -0.556      0.022     9.1689     97.393      8.697   7.532554    -0.0650      6.318  1240.2295 3.1515e+02     2.1402     -0.545     -0.792    18.2445 0.0000e+00
     -0.556      0.049     9.1559     97.393     18.857  16.361729     0.5690      6.650  1240.2294 2.7442e+02     3.3654     -0.544     -0.790    18.2451 0.0000e+00
     -0.554      0.075     9.1365     97.413     28.204  24.524117     6.3842      6.987  1240.2281 2.4775e+02     3.2272     -0.545     -0.791    18.2464 0.0000e+00
     -0.537      0.094     9.1179     97.428     30.786  26.821715    70.3482      7.207  1240.2139 2.7157e+02     0.3772     -0.543     -0.788    18.2471 0.0000e+00
     -0.488      0.099     9.1051     97.433     26.438  23.067799   187.5684      7.347  1240.0582 2.9808e+02    -4.7563     -0.484     -0.703    18.2486 0.0000e+00
     -0.430      0.091     9.0982     97.451     20.374  17.797084   250.9991      7.447  1238.3454 3.1506e+02    -5.8931     -0.407     -0.590    18.3158 0.0000e+00
     -0.399      0.072     9.0937     97.475     17.757  15.525873   250.9925      7.495  1219.5046 3.1756e+02    13.2753     -0.383     -0.554    18.4578 0.0000e+00
     -0.394      0.047     9.0889     97.484     20.077  17.568196   187.4705      7.492  1012.2555 3.0931e+02   227.2198     -0.382     -0.555    18.5736 0.0000e+00
     -0.403      0.022     9.0847     97.479     25.916  22.687877    70.0873      7.452   598.1905 2.9431e+02   619.3738     -0.394     -0.571    18.6384 0.0000e+00
     -0.414      0.007     9.0817     97.471     31.446  27.535018     6.0336      7.384   319.9056 2.7858e+02   831.6184     -0.408     -0.592    18.6794 0.0000e+00
     -0.420      0.007     9.0794     97.461     34.062  29.830116     0.2121      7.310   261.3229 2.7227e+02   831.8411     -0.415     -0.602    18.7167 0.0000e+00
     -0.415      0.013     9.0774     97.451     34.532  30.245641    -0.1157      7.253   257.3455 2.7415e+02   622.1887     -0.410     -0.594    18.7494 0.0000e+00
     -0.402      0.018     9.0755     97.441     32.022  28.050294     0.2318      7.207   257.7046 2.7722e+02   234.7796     -0.393     -0.570    18.7664 0.0000e+00
     -0.388      0.014     9.0720     97.418     26.217  22.969098     0.4438      7.161   257.6637 2.8321e+02    23.3814     -0.379     -0.550    18.7770 0.0000e+00
     -0.379      0.005     9.0672     97.398     24.172  21.186844     0.4902      7.116   258.5717 2.8644e+02     4.1797     -0.369     -0.536    18.7836 0.0000e+00
     -0.379      0.000     9.0630     97.395     29.058  25.482437     0.8568      7.074   259.7350 2.8134e+02     2.7671     -0.367     -0.534    18.7893 0.0000e+00
     -0.389      0.006     9.0610     97.399     33.648  29.514503     1.5316      7.032   259.9417 2.7741e+02     3.2193     -0.378     -0.550    18.7948 0.0000e+00
     -0.406      0.030     9.0609     97.408     34.855  30.575719     1.9046      6.997   259.6932 2.8545e+02     3.5433     -0.400     -0.581    18.7978 0.0000e+00
     -0.413      0.070     9.0592     97.411     34.980  30.693194     1.9379      6.976   259.6565 3.0180e+02     3.5720     -0.415     -0.603    18.8154 0.0000e+00
     -0.394      0.119     9.0569     97.430     34.949  30.680855     1.9066      6.966   260.4445 3.1356e+02     3.5047     -0.396     -0.575    18.8442 0.0000e+00
     -0.348      0.166     9.0619     97.529     34.930  30.680572     1.6359      6.962   261.6492 3.3767e+02     2.8211     -0.349     -0.506    18.8562 0.0000e+00
     -0.282      0.201     9.0783     97.737     34.928  30.689802     1.1648      6.962   262.7792 5.9722e+02     1.5939     -0.281     -0.408    18.8539 0.0000e+00
     -0.206      0.216     9.1057     98.051     34.893  30.665448     0.9159      6.964   263.7824 1.0233e+03     0.9352     -0.198     -0.287    18.8617 0.0000e+00
     -0.138      0.211     9.1434     98.466     34.860  30.640150     0.8964      6.965   264.4869 9.9075e+02     0.8689     -0.128     -0.186    18.8891 0.0000e+00
     -0.086      0.189     9.1885     98.956     34.856  30.637955     0.9110      6.965   264.9300 5.5527e+02     0.8529     -0.081     -0.118    18.9159 0.0000e+00
     -0.046      0.159     9.2363     99.468     34.858  30.638900     0.9357      6.964   265.3543 2.9537e+02     0.8631     -0.044     -0.063    18.9304 0.0000e+00
     -0.013      0.129     9.2822     99.960     34.874  30.651581     0.9379      6.963   265.6595 2.2681e+02     0.8704     -0.010     -0.015    18.9390 0.0000e+00
      0.013      0.107     9.3208    100.373     34.889  30.664271     0.9383      6.962   265.7800 1.8590e+02     0.8504      0.016      0.023    18.9448 0.0000e+00
      0.033      0.092     9.3456    100.638     34.890  30.665321     0.9498      6.962   266.0370 1.6531e+02     0.8350      0.034      0.049    18.9455 0.0000e+00
      0.052      0.079     9.3447    100.629     34.889  30.664272     0.9565      6.967   266.3587 1.6346e+02     0.8355      0.048      0.070    18.9428 0.0000e+00
      0.073      0.065     9.2972    100.119     34.874  30.651591     0.9642      6.977   266.6582 1.6705e+02     0.8269      0.071      0.103    18.9427 0.0000e+00
      0.094      0.049     9.1874     98.939     34.859  30.639003     0.9606      6.990   266.9912 1.6934e+02     0.8220      0.095      0.138    18.9417 0.0000e+00
      0.109      0.031     9.0199     97.136     34.859  30.639088     0.9495      7.002   267.2015 1.6954e+02     0.8378      0.110      0.160    18.9396 0.0000e+00
      0.115      0.011     8.8140     94.920     34.874  30.652621     0.9498      7.012   267.3939 1.6673e+02     0.8646      0.115      0.168    18.9402 0.0000e+00
      0.112     -0.011     8.5993     92.610     34.899  30.675611     0.9547      7.020   267.6831 1.5920e+02     0.8718      0.112      0.161    18.9416 0.0000e+00
      0.102     -0.035     8.4030     90.498     34.884  30.663033     0.9627      7.026   267.8595 1.5147e+02     0.8642      0.100      0.146    18.9423 0.0000e+00
      0.091     -0.056     8.2338     88.678     34.842  30.627562     0.9638      7.031   267.8910 1.7008e+02     0.8639      0.089      0.131    18.9428 0.0000e+00
      0.076     -0.076     8.0939     87.174     34.842  30.627772     0.9591      7.037   267.9778 3.3337e+02     0.8679      0.079      0.113    18.9438 0.0000e+00
      0.055     -0.093     7.9830     85.982     34.884  30.665572     0.9614      7.046   268.1347 5.7480e+02     0.8825      0.056      0.081    18.9447 0.0000e+00
      0.027     -0.105     7.8917     84.999     34.927  30.703561     0.9635      7.055   268.2395 7.9414e+02     0.8882      0.028      0.040    18.9453 0.0000e+00
     -0.005     -0.109     7.8122     84.140     34.930  30.706059     0.9661      7.059   268.3849 1.0877e+03     0.8759     -0.001     -0.003    18.9469 0.0000e+00
     -0.042     -0.100     7.7400     83.359     34.920  30.695772     0.9657      7.059   268.6877 1.3063e+03     0.8559     -0.041     -0.060    18.9489 0.0000e+00
     -0.077     -0.071     7.6675     82.577     34.933  30.706194     0.9581      7.059   268.9752 1.3791e+03     0.8594     -0.081     -0.119    18.9495 0.0000e+00
     -0.100     -0.023     7.5913     81.757     34.932  30.705050     0.9574      7.063   269.1081 1.1515e+03     0.8881     -0.103     -0.149    18.9503 0.0000e+00
     -0.110      0.032     7.5212     81.004     34.904  30.681938     0.9572      7.068   269.0042 6.0857e+02     0.8669     -0.114     -0.164    18.9495 0.0000e+00
     -0.098      0.083     7.4675     80.434     34.899  30.680782     0.9651      7.073   268.7517 2.9232e+02     0.8169     -0.111     -0.161    18.9452 0.0000e+00
     -0.054      0.120     7.4328     80.070     34.906  30.691067     0.9973      7.078   268.7222 2.4218e+02     0.8022     -0.062     -0.089    18.9448 0.0000e+00
      0.009      0.137     7.4234     79.978     34.888  30.679291     1.0160      7.083   268.9052 1.9898e+02     0.8107      0.015      0.022    18.9463 0.0000e+00
      0.063      0.134     7.4438     80.201     34.871  30.665426     1.0165      7.087   269.0716 1.7068e+02     0.8287      0.070      0.102    18.9468 0.0000e+00
      0.097      0.114     7.4838     80.628     34.856  30.650433     1.0213      7.091   269.2721 1.6205e+02     0.8371      0.100      0.145    18.9510 0.0000e+00
      0.116      0.082     7.5295     81.110     34.831  30.625032     1.0189      7.095   269.5212 1.6077e+02     0.8510      0.116      0.169    18.9584 0.0000e+00
      0.125      0.051     7.5718     81.555     34.821  30.612322     1.0158      7.099   269.7607 1.6292e+02     0.8740      0.124      0.180    18.9656 0.0000e+00
      0.128      0.027     7.6047     81.896     34.841  30.623764     1.0208      7.102   269.9316 1.7002e+02     0.8720      0.126      0.182    18.9674 0.0000e+00
      0.130      0.012     7.6241     82.091     34.862  30.636351     1.0234      7.104   270.0391 1.7869e+02     0.8567      0.126      0.184    18.9643 0.0000e+00
      0.133      0.002     7.6277     82.117     34.869  30.637496     1.0196      7.109   270.1999 1.8365e+02     0.8422      0.130      0.189    18.9587 0.0000e+00
      0.134     -0.003     7.6179     82.002     34.874  30.637600     1.0211      7.114   270.3259 1.8784e+02     0.8482      0.132      0.192    18.9518 0.0000e+00
      0.131     -0.006     7.6039     81.844     34.878  30.637609     1.0234      7.119   270.3586 1.9162e+02     0.8692      0.130      0.189    18.9433 0.0000e+00
      0.125     -0.007     7.5947     81.736     34.882  30.637601     1.0004      7.123   270.5086 1.9521e+02     0.8512      0.123      0.178    18.9341 0.0000e+00
      0.120     -0.010     7.5904     81.680     34.887  30.637497     0.9647      7.125   270.6775 1.9485e+02     0.8144      0.116      0.168    18.9265 0.0000e+00
      0.119     -0.020     7.5851     81.611     34.891  30.636343     0.9501      7.128   270.7668 1.9246e+02     0.8212      0.116      0.169    18.9215 0.0000e+00
      0.122     -0.035     7.5736     81.478     34.881  30.623642     0.9518      7.132   270.8995 1.9203e+02     0.8420      0.119      0.174    18.9168 0.0000e+00
      0.121     -0.051     7.5579     81.303     34.870  30.610942     0.9487      7.138   270.9915 1.9233e+02     0.8521      0.123      0.179    18.9115 0.0000e+00
      0.106     -0.068     7.5457     81.166     34.871  30.609798     0.9302      7.144   271.1047 1.9968e+02     0.8515      0.112      0.162    18.9051 0.0000e+00
      0.077     -0.081     7.5413     81.114     34.873  30.609807     0.9037      7.150   271.2348 2.1853e+02     0.8349      0.077      0.111    18.8974 0.0000e+00
