* Sea-Bird SBE19plus  Data File:
* FileName = C:\DATA\050718_fcr_0004.hex
* Software version 2.6.3.104 SB_Terminal.dll
* Temperature SN = 7809
* Conductivity SN = 7809
* System UpLoad Time = May 07 2018 16:24:51
* <ApplicationData>
* <Seaterm232>
* <SoftwareVersion>2.6.3.104</SoftwareVersion>
* <BuildDate>30-Jun-2017</BuildDate>
* </Seaterm232>
* </ApplicationData>
* cast   4 07 May 2018 15:39:05 samples 2688 to 3724, avg = 1, stop = mag switch
# nquan = 15
# nvalues = 925                         
# units = specified
# name 0 = depFM: Depth [fresh water, m]
# name 1 = dz/dtM: Descent Rate [m/s]
# name 2 = sbeox0Mg/L: Oxygen, SBE 43 [mg/l]
# name 3 = sbeox0PS: Oxygen, SBE 43 [% saturation]
# name 4 = specc: Specific Conductance [uS/cm]
# name 5 = c0uS/cm: Conductivity [uS/cm]
# name 6 = flECO-AFL: Fluorescence, WET Labs ECO-AFL/FL [mg/m^3]
# name 7 = ph: pH
# name 8 = orp: Oxidation Reduction Potential [mV]
# name 9 = par/sat/log: PAR/Logarithmic, Satlantic
# name 10 = turbWETntu0: Turbidity, WET Labs ECO [NTU]
# name 11 = prdM: Pressure, Strain Gauge [db]
# name 12 = prdE: Pressure, Strain Gauge [psi]
# name 13 = tv290C: Temperature [ITS-90, deg C]
# name 14 = flag:  0.000e+00
# span 0 =     -0.563,      6.152       
# span 1 =     -0.102,      0.164       
# span 2 =     5.4256,     9.8541       
# span 3 =     58.941,    101.616       
# span 4 =      0.591,     38.948       
# span 5 =   0.509660,  31.220312       
# span 6 =    -1.8319,     2.1916       
# span 7 =      6.619,     10.944       
# span 8 =   301.3746,  1240.2048       
# span 9 = 2.5278e+01, 2.3283e+03       
# span 10 =    -5.9052,     4.2871      
# span 11 =     -0.553,      6.036      
# span 12 =     -0.802,      8.755      
# span 13 =     8.7422,    19.5558      
# span 14 = 0.0000e+00, 0.0000e+00      
# interval = seconds: 0.25
# start_time = May 07 2018 15:39:05 [Instrument's time stamp, header]
# bad_flag = -9.990e-29
# <Sensors count="9" >
#   <sensor Channel="1" >
#     <!-- Count, Temperature -->
#     <TemperatureSensor SensorID="58" >
#       <SerialNumber>7809</SerialNumber>
#       <CalibrationDate>09-Mar-18</CalibrationDate>
#       <A0>1.21093245e-003</A0>
#       <A1>2.84356597e-004</A1>
#       <A2>-1.94507398e-006</A2>
#       <A3>2.12806664e-007</A3>
#       <Slope>1.00000000</Slope>
#       <Offset>0.0000</Offset>
#     </TemperatureSensor>
#   </sensor>
#   <sensor Channel="2" >
#     <!-- Frequency 0, Conductivity -->
#     <ConductivitySensor SensorID="3" >
#       <SerialNumber>7809</SerialNumber>
#       <CalibrationDate>09-Mar-18</CalibrationDate>
#       <UseG_J>1</UseG_J>
#       <!-- Cell const and series R are applicable only for wide range sensors. -->
#       <SeriesR>0.0000</SeriesR>
#       <CellConst>2000.0000</CellConst>
#       <ConductivityType>0</ConductivityType>
#       <Coefficients equation="0" >
#         <A>0.00000000e+000</A>
#         <B>0.00000000e+000</B>
#         <C>0.00000000e+000</C>
#         <D>0.00000000e+000</D>
#         <M>0.0</M>
#         <CPcor>-9.57000000e-008</CPcor>
#       </Coefficients>
#       <Coefficients equation="1" >
#         <G>-1.00672082e+000</G>
#         <H>1.26906489e-001</H>
#         <I>-1.40584351e-004</I>
#         <J>2.47837121e-005</J>
#         <CPcor>-9.57000000e-008</CPcor>
#         <CTcor>3.2500e-006</CTcor>
#         <!-- WBOTC not applicable unless ConductivityType = 1. -->
#         <WBOTC>0.00000000e+000</WBOTC>
#       </Coefficients>
#       <Slope>1.00000000</Slope>
#       <Offset>0.00000</Offset>
#     </ConductivitySensor>
#   </sensor>
#   <sensor Channel="3" >
#     <!-- Count, Pressure, Strain Gauge -->
#     <PressureSensor SensorID="46" >
#       <SerialNumber>7809</SerialNumber>
#       <CalibrationDate>07-Mar-18</CalibrationDate>
#       <PA0>-4.08176359e-002</PA0>
#       <PA1>4.85188419e-004</PA1>
#       <PA2>-3.51168169e-012</PA2>
#       <PTEMPA0>-5.37806900e+001</PTEMPA0>
#       <PTEMPA1>5.36620721e+001</PTEMPA1>
#       <PTEMPA2>4.87214332e-002</PTEMPA2>
#       <PTCA0>5.25213435e+005</PTCA0>
#       <PTCA1>1.79532409e+000</PTCA1>
#       <PTCA2>-2.84353509e-001</PTCA2>
#       <PTCB0>2.51668750e+001</PTCB0>
#       <PTCB1>3.75000000e-004</PTCB1>
#       <PTCB2>0.00000000e+000</PTCB2>
#       <Offset>0.000000</Offset>
#     </PressureSensor>
#   </sensor>
#   <sensor Channel="4" >
#     <!-- A/D voltage 0, pH -->
#     <pH_Sensor SensorID="43" >
#       <SerialNumber>0363</SerialNumber>
#       <CalibrationDate>16-Mar-18</CalibrationDate>
#       <Slope>4.6194</Slope>
#       <Offset>2.5947</Offset>
#     </pH_Sensor>
#   </sensor>
#   <sensor Channel="5" >
#     <!-- A/D voltage 1, Oxidation Reduction Potential -->
#     <OxidationReductionPotentialSensor SensorID="41" >
#       <SerialNumber>0363</SerialNumber>
#       <CalibrationDate>16-Mar-18</CalibrationDate>
#       <B>2.499480</B>
#       <M>-0.496195</M>
#       <Offset>0.0</Offset>
#     </OxidationReductionPotentialSensor>
#   </sensor>
#   <sensor Channel="6" >
#     <!-- A/D voltage 2, Oxygen, SBE 43 -->
#     <OxygenSensor SensorID="38" >
#       <SerialNumber>0434</SerialNumber>
#       <CalibrationDate>13-Mar-18</CalibrationDate>
#       <Use2007Equation>1</Use2007Equation>
#       <CalibrationCoefficients equation="0" >
#         <!-- Coefficients for Owens-Millard equation. -->
#         <Boc>0.0000</Boc>
#         <Soc>0.0000e+000</Soc>
#         <offset>0.0000</offset>
#         <Pcor>0.00e+000</Pcor>
#         <Tcor>0.0000</Tcor>
#         <Tau>0.0</Tau>
#       </CalibrationCoefficients>
#       <CalibrationCoefficients equation="1" >
#         <!-- Coefficients for Sea-Bird equation - SBE calibration in 2007 and later. -->
#         <Soc>4.5718e-001</Soc>
#         <offset>-0.6113</offset>
#         <A>-4.0649e-003</A>
#         <B> 2.0945e-004</B>
#         <C>-3.3182e-006</C>
#         <D0> 2.5826e+000</D0>
#         <D1> 1.92634e-004</D1>
#         <D2>-4.64803e-002</D2>
#         <E> 3.6000e-002</E>
#         <Tau20> 1.2200</Tau20>
#         <H1>-3.3000e-002</H1>
#         <H2> 5.0000e+003</H2>
#         <H3> 1.4500e+003</H3>
#       </CalibrationCoefficients>
#     </OxygenSensor>
#   </sensor>
#   <sensor Channel="7" >
#     <!-- A/D voltage 3, PAR/Logarithmic, Satlantic -->
#     <PARLog_SatlanticSensor SensorID="76" >
#       <SerialNumber>1122</SerialNumber>
#       <CalibrationDate>22-Jun-2017</CalibrationDate>
#       <a0>9.6090e-001</a0>
#       <a1>8.0780e-001</a1>
#       <Im>1.3589e+000</Im>
#       <Multiplier>1.0000e+000</Multiplier>
#     </PARLog_SatlanticSensor>
#   </sensor>
#   <sensor Channel="8" >
#     <!-- A/D voltage 4, Fluorometer, WET Labs ECO-AFL/FL -->
#     <FluoroWetlabECO_AFL_FL_Sensor SensorID="20" >
#       <SerialNumber>FLNTURT-2496</SerialNumber>
#       <CalibrationDate>25-Jan-2017</CalibrationDate>
#       <ScaleFactor>5.30000000e+001</ScaleFactor>
#       <!-- Dark output -->
#       <Vblank>0.0560</Vblank>
#     </FluoroWetlabECO_AFL_FL_Sensor>
#   </sensor>
#   <sensor Channel="9" >
#     <!-- A/D voltage 5, Turbidity Meter, WET Labs, ECO-NTU -->
#     <TurbidityMeter SensorID="67" >
#       <SerialNumber>FLNTURT-2496</SerialNumber>
#       <CalibrationDate>25-Jan-2017</CalibrationDate>
#       <ScaleFactor>176.000000</ScaleFactor>
#       <!-- Dark output -->
#       <DarkVoltage>0.072000</DarkVoltage>
#     </TurbidityMeter>
#   </sensor>
# </Sensors>
# datcnv_date = May 07 2018 16:36:05, 7.26.7.114 [datcnv_vars = 14]
# datcnv_in = C:\DATA\050718_fcr45.hex C:\DATA\SBE19plusV2_7809.xmlcon
# datcnv_skipover = 0
# datcnv_ox_hysteresis_correction = yes
# datcnv_ox_tau_correction = yes
# filter_date = May 07 2018 16:36:36, 7.26.7.114
# filter_in = C:\DATA\050718_fcr45.cnv
# filter_low_pass_tc_A = 0.030
# filter_low_pass_tc_B = 0.150
# filter_low_pass_A_vars = prdM prdE tv290C
# filter_low_pass_B_vars = depFM dz/dtM sbeox0Mg/L sbeox0PS specc c0uS/cm flECO-AFL ph orp par/sat/log turbWETntu0
# alignctd_date = May 07 2018 16:36:57, 7.26.7.114
# alignctd_in = C:\DATA\050718_fcr45.cnv
# alignctd_adv = dz/dtM 1.000, sbeox0Mg/L 1.000, sbeox0PS 1.000, specc 1.000, c0uS/cm 1.000, flECO-AFL 1.000, ph 1.000, orp 1.000, turbWETntu0 1.000                                                                                 
# file_type = ascii
*END*
     -0.563 1.2378e-10     9.2078     97.489      0.592   0.510900    -0.5785      9.460  1226.8434 1.4915e+03    -0.4345     -0.552     -0.800    18.1520 0.0000e+00
     -0.563 1.3615e-09     9.2124     97.483      0.591   0.509660    -0.5861     10.300  1239.0125 1.2740e+03    -0.3900     -0.552     -0.800    18.1526 0.0000e+00
     -0.563 1.4977e-08     9.2201     97.497      0.592   0.509739    -0.4908     10.723  1240.1175 7.9612e+02     0.2236     -0.552     -0.800    18.1467 0.0000e+00
     -0.562 1.6475e-07     9.2291     97.524      0.595   0.511856    -0.2989     10.851  1240.2048 5.2202e+02     1.3083     -0.552     -0.800    18.1324 0.0000e+00
     -0.562      0.000     9.2354     97.539      0.622   0.535252    -0.1960     10.867  1240.0674 4.9045e+02     1.8908     -0.552     -0.800    18.1145 0.0000e+00
     -0.562      0.000     9.2369     97.524      0.775   0.665798    -0.1940     10.914  1238.4567 5.4625e+02     1.9256     -0.551     -0.799    18.0870 0.0000e+00
     -0.562      0.000     9.2364     97.510      1.546   1.329328    -0.2010     10.944  1220.7295 8.6632e+02     1.7598     -0.552     -0.800    18.0510 0.0000e+00
     -0.563      0.002     9.2318     97.507      6.403   5.514063    -0.2255     10.513  1025.7299 1.3948e+03    -0.2051     -0.552     -0.801    18.0127 0.0000e+00
     -0.563      0.012     9.2081     97.498     15.722  13.581957    -0.2591      9.387   845.2677 1.6387e+03    -3.8264     -0.553     -0.801    17.9874 0.0000e+00
     -0.563      0.032     9.1600     97.501     24.866  21.605616    -0.2770      8.215  1003.3107 1.5273e+03    -5.7996     -0.552     -0.801    17.9685 0.0000e+00
     -0.562      0.060     9.1076     97.523     31.770  27.768828    -0.3140      7.568   972.0804 1.6055e+03    -5.9052     -0.552     -0.800    17.9698 0.0000e+00
     -0.555      0.090     9.0685     97.552     34.905  30.644815    -0.7058      7.328   574.9559 1.6244e+03    -4.9514     -0.552     -0.802    17.9610 0.0000e+00
     -0.525      0.113     9.0420     97.579     35.166  30.982467    -1.4303      7.295   345.8788 1.1122e+03    -3.1787     -0.526     -0.763    18.0416 0.0000e+00
     -0.473      0.128     9.0209     97.579     35.123  31.025888    -1.8319      7.361   315.2808 6.6265e+02    -2.2324     -0.461     -0.668    18.3636 0.0000e+00
     -0.420      0.137     9.0015     97.547     35.070  31.042898    -1.8306      7.415   305.4921 5.8407e+02    -2.0239     -0.407     -0.590    18.6989 0.0000e+00
     -0.382      0.143     8.9880     97.539     35.035  31.061199    -1.3050      7.417   302.8940 6.3213e+02    -0.3834     -0.369     -0.536    18.9101 0.0000e+00
     -0.358      0.146     8.9826     97.585     34.988  31.056701    -0.3291      7.404   301.7635 1.0835e+03     2.6182     -0.349     -0.505    19.0612 0.0000e+00
     -0.338      0.149     8.9829     97.664     34.952  31.052073     0.2095      7.404   301.3746 1.8890e+03     4.2387     -0.339     -0.491    19.1707 0.0000e+00
     -0.305      0.154     8.9910     97.803     34.950  31.068785     0.2719      7.395   302.3211 2.3163e+03     4.2871     -0.306     -0.444    19.2601 0.0000e+00
     -0.255      0.160     9.0084     98.023     34.937  31.068263     0.3707      7.370   303.5718 2.3283e+03     3.4159     -0.253     -0.367    19.3294 0.0000e+00
     -0.197      0.164     9.0339     98.318     34.905  31.045774     0.5496      7.334   304.6228 2.2787e+03     1.8238     -0.191     -0.277    19.3830 0.0000e+00
     -0.146      0.160     9.0665     98.683     34.907  31.050913     0.6423      7.286   305.5646 2.0652e+03     0.9673     -0.139     -0.201    19.4208 0.0000e+00
     -0.108      0.146     9.1022     99.077     34.923  31.066889     0.6368      7.228   306.5267 1.5161e+03     0.8725     -0.102     -0.148    19.4459 0.0000e+00
     -0.079      0.123     9.1381     99.468     34.902  31.048415     0.6309      7.176   307.4797 9.7298e+02     0.8302     -0.078     -0.113    19.4612 0.0000e+00
     -0.052      0.095     9.1720     99.833     34.869  31.018074     0.6622      7.140   308.2255 9.6072e+02     0.8522     -0.053     -0.076    19.4680 0.0000e+00
     -0.026      0.068     9.1992    100.128     34.869  31.017572     0.7208      7.118   308.6607 1.0829e+03     0.8945     -0.022     -0.031    19.4717 0.0000e+00
     -0.008      0.044     9.2177    100.331     34.897  31.042342     0.7516      7.103   308.8701 1.1541e+03     0.8839     -0.003     -0.004    19.4758 0.0000e+00
     -0.002      0.025     9.2277    100.438     34.921  31.063543     0.7492      7.091   309.0362 1.5869e+03     0.8464      0.002      0.003    19.4748 0.0000e+00
     -0.007      0.010     9.2323    100.485     34.944  31.083383     0.7379      7.081   309.3787 1.9364e+03     0.7772     -0.007     -0.009    19.4721 0.0000e+00
     -0.014      0.003     9.2363    100.529     34.954  31.091693     0.7437      7.073   309.8275 1.6195e+03     0.6872     -0.015     -0.023    19.4724 0.0000e+00
     -0.018      0.003     9.2342    100.507     34.964  31.100520     0.7647      7.065   310.1606 9.2386e+02     0.6439     -0.019     -0.026    19.4730 0.0000e+00
     -0.017      0.009     9.2055    100.200     34.991  31.126602     0.7708      7.054   310.3094 5.3259e+02     0.6195     -0.020     -0.027    19.4720 0.0000e+00
     -0.012      0.017     9.1248     99.329     35.017  31.153011     0.7637      7.044   310.4216 4.8916e+02     0.6666     -0.014     -0.018    19.4707 0.0000e+00
     -0.004      0.023     8.9838     97.803     35.028  31.165803     0.7610      7.035   310.6580 4.7064e+02     0.8175     -0.004     -0.006    19.4697 0.0000e+00
      0.006      0.026     8.7918     95.720     35.012  31.154256     0.7646      7.033   310.8442 4.1357e+02     0.8874      0.006      0.009    19.4706 0.0000e+00
      0.014      0.026     8.5687     93.297     34.994  31.140419     0.7624      7.037   310.8654 3.5587e+02     0.8398      0.015      0.022    19.4735 0.0000e+00
      0.020      0.025     8.3467     90.884     34.975  31.125523     0.7430      7.041   310.8283 3.5761e+02     0.7613      0.021      0.030    19.4776 0.0000e+00
      0.025      0.024     8.1507     88.749     34.948  31.101167     0.7141      7.045   310.7402 3.7516e+02     0.6703      0.024      0.036    19.4823 0.0000e+00
      0.030      0.024     7.9920     87.017     34.949  31.099960     0.6980      7.050   310.4878 3.7295e+02     0.6248      0.029      0.042    19.4864 0.0000e+00
      0.035      0.027     7.8713     85.697     34.964  31.110924     0.6955      7.055   310.0995 3.7312e+02     0.6383      0.034      0.049    19.4891 0.0000e+00
      0.042      0.032     7.7799     84.702     34.959  31.106715     0.7195      7.058   309.8306 4.0273e+02     0.6511      0.041      0.059    19.4917 0.0000e+00
      0.050      0.038     7.7064     83.905     34.964  31.112584     0.7775      7.057   309.8178 4.3219e+02     0.6264      0.050      0.072    19.4926 0.0000e+00
      0.059      0.044     7.6405     83.191     34.969  31.118377     0.8183      7.052   310.3752 4.0470e+02     0.6140      0.056      0.082    19.4883 0.0000e+00
      0.071      0.049     7.5750     82.482     34.961  31.113242     0.8263      7.050   311.8381 3.6474e+02     0.6536      0.067      0.098    19.4843 0.0000e+00
      0.087      0.052     7.5075     81.749     34.961  31.114014     0.8191      7.051   312.7935 3.5509e+02     0.6789      0.086      0.125    19.4848 0.0000e+00
      0.103      0.053     7.4418     81.033     34.976  31.127713     0.7964      7.051   312.0323 3.5033e+02     0.6754      0.103      0.148    19.4871 0.0000e+00
      0.117      0.053     7.3894     80.460     35.005  31.151853     0.7718      7.051   311.0660 3.5124e+02     0.6720      0.116      0.167    19.4895 0.0000e+00
      0.131      0.053     7.3644     80.185     35.006  31.151853     0.7610      7.056   311.9513 3.5874e+02     0.6690      0.127      0.185    19.4916 0.0000e+00
      0.144      0.054     7.3732     80.278     34.980  31.127710     0.7580      7.064   313.9600 3.5838e+02     0.6694      0.142      0.206    19.4938 0.0000e+00
      0.154      0.057     7.4091     80.666     34.966  31.113977     0.7346      7.069   313.9300 3.7888e+02     0.7071      0.152      0.219    19.4941 0.0000e+00
      0.166      0.062     7.4569     81.181     34.968  31.112823     0.6995      7.071   312.1046 6.5925e+02     0.7891      0.159      0.231    19.4912 0.0000e+00
      0.184      0.067     7.5030     81.678     34.971  31.113760     0.6905      7.074   311.0764 1.1907e+03     0.8367      0.178      0.259    19.4894 0.0000e+00
      0.205      0.071     7.5472     82.156     34.986  31.125296     0.6996      7.079   310.8763 1.3815e+03     0.8554      0.201      0.293    19.4892 0.0000e+00
      0.226      0.072     7.5900     82.618     34.987  31.125286     0.6905      7.086   310.8889 1.2710e+03     0.8634      0.221      0.321    19.4866 0.0000e+00
      0.245      0.068     7.6177     82.918     34.975  31.113635     0.6632      7.093   310.8849 1.4990e+03     0.8418      0.241      0.349    19.4822 0.0000e+00
      0.264      0.055     7.6249     82.992     34.975  31.111436     0.6546      7.098   310.7419 1.6676e+03     0.8378      0.260      0.376    19.4793 0.0000e+00
      0.280      0.029     7.6157     82.885     34.964  31.098701     0.6591      7.103   310.7086 1.3278e+03     0.8467      0.274      0.398    19.4777 0.0000e+00
      0.293     -0.002     7.5939     82.644     34.952  31.086667     0.6356      7.108   310.8265 1.1798e+03     0.8262      0.289      0.420    19.4756 0.0000e+00
      0.298     -0.028     7.5677     82.356     34.960  31.092956     0.5909      7.109   310.9623 1.2805e+03     0.8041      0.299      0.435    19.4746 0.0000e+00
      0.282     -0.043     7.5472     82.136     34.980  31.111231     0.5694      7.111   310.9734 1.2935e+03     0.8236      0.289      0.419    19.4723 0.0000e+00
      0.242     -0.049     7.5417     82.081     34.984  31.117099     0.5764      7.116   310.9612 1.3838e+03     0.8481      0.235      0.341    19.4671 0.0000e+00
      0.207     -0.045     7.5578     82.260     34.964  31.100398     0.6034      7.124   310.9877 1.3221e+03     0.7944      0.186      0.270    19.4652 0.0000e+00
      0.202     -0.033     7.5926     82.640     34.963  31.099830     0.6381      7.132   310.9493 1.1397e+03     0.6944      0.195      0.283    19.4632 0.0000e+00
      0.212     -0.016     7.6333     83.082     34.974  31.110232     0.6466      7.140   310.9277 1.0958e+03     0.6767      0.210      0.305    19.4637 0.0000e+00
      0.220     -0.002     7.6692     83.472     34.962  31.099158     0.6425      7.149   310.8984 1.2324e+03     0.7026      0.216      0.314    19.4696 0.0000e+00
      0.225      0.003     7.6917     83.716     34.956  31.092954     0.6527      7.158   310.8528 1.6179e+03     0.8237      0.223      0.324    19.4708 0.0000e+00
      0.225     -0.002     7.6935     83.737     34.962  31.098728     0.6598      7.165   310.8926 1.7751e+03     1.0724      0.221      0.321    19.4706 0.0000e+00
      0.220     -0.007     7.6738     83.527     34.967  31.105457     0.6550      7.170   310.9497 1.7085e+03     1.2065      0.216      0.314    19.4714 0.0000e+00
