* Sea-Bird SBE19plus  Data File:
* FileName = C:\DATA\051118_bvr_0003.hex
* Software version 2.6.3.104 SB_Terminal.dll
* Temperature SN = 7809
* Conductivity SN = 7809
* System UpLoad Time = May 11 2018 13:58:56
* <ApplicationData>
* <Seaterm232>
* <SoftwareVersion>2.6.3.104</SoftwareVersion>
* <BuildDate>30-Jun-2017</BuildDate>
* </Seaterm232>
* </ApplicationData>
* cast   3 11 May 2018 16:02:06 samples 2457 to 3373, avg = 1, stop = mag switch
# nquan = 15
# nvalues = 824                         
# units = specified
# name 0 = depFM: Depth [fresh water, m]
# name 1 = dz/dtM: Descent Rate [m/s]
# name 2 = sbeox0Mg/L: Oxygen, SBE 43 [mg/l]
# name 3 = sbeox0PS: Oxygen, SBE 43 [% saturation]
# name 4 = specc: Specific Conductance [uS/cm]
# name 5 = c0uS/cm: Conductivity [uS/cm]
# name 6 = flECO-AFL: Fluorescence, WET Labs ECO-AFL/FL [mg/m^3]
# name 7 = ph: pH
# name 8 = orp: Oxidation Reduction Potential [mV]
# name 9 = par/sat/log: PAR/Logarithmic, Satlantic
# name 10 = turbWETntu0: Turbidity, WET Labs ECO [NTU]
# name 11 = prdM: Pressure, Strain Gauge [db]
# name 12 = prdE: Pressure, Strain Gauge [psi]
# name 13 = tv290C: Temperature [ITS-90, deg C]
# name 14 = flag:  0.000e+00
# span 0 =     -0.560,      9.716       
# span 1 =     -0.164,      0.195       
# span 2 =     5.0513,     9.3297       
# span 3 =     58.000,     97.791       
# span 4 =      0.800,     39.478       
# span 5 =   0.797353,  34.100344       
# span 6 =    -0.3455,     2.4064       
# span 7 =     -2.499,      7.552       
# span 8 =   269.3193,  1215.7013       
# span 9 = 2.9979e+00, 2.0061e+03       
# span 10 =    -0.2078,    58.3985      
# span 11 =     -0.550,      9.529      
# span 12 =     -0.798,     13.821      
# span 13 =     9.1022,    24.9869      
# span 14 = 0.0000e+00, 0.0000e+00      
# interval = seconds: 0.25
# start_time = May 11 2018 16:02:06 [Instrument's time stamp, header]
# bad_flag = -9.990e-29
# <Sensors count="9" >
#   <sensor Channel="1" >
#     <!-- Count, Temperature -->
#     <TemperatureSensor SensorID="58" >
#       <SerialNumber>7809</SerialNumber>
#       <CalibrationDate>09-Mar-18</CalibrationDate>
#       <A0>1.21093245e-003</A0>
#       <A1>2.84356597e-004</A1>
#       <A2>-1.94507398e-006</A2>
#       <A3>2.12806664e-007</A3>
#       <Slope>1.00000000</Slope>
#       <Offset>0.0000</Offset>
#     </TemperatureSensor>
#   </sensor>
#   <sensor Channel="2" >
#     <!-- Frequency 0, Conductivity -->
#     <ConductivitySensor SensorID="3" >
#       <SerialNumber>7809</SerialNumber>
#       <CalibrationDate>09-Mar-18</CalibrationDate>
#       <UseG_J>1</UseG_J>
#       <!-- Cell const and series R are applicable only for wide range sensors. -->
#       <SeriesR>0.0000</SeriesR>
#       <CellConst>2000.0000</CellConst>
#       <ConductivityType>0</ConductivityType>
#       <Coefficients equation="0" >
#         <A>0.00000000e+000</A>
#         <B>0.00000000e+000</B>
#         <C>0.00000000e+000</C>
#         <D>0.00000000e+000</D>
#         <M>0.0</M>
#         <CPcor>-9.57000000e-008</CPcor>
#       </Coefficients>
#       <Coefficients equation="1" >
#         <G>-1.00672082e+000</G>
#         <H>1.26906489e-001</H>
#         <I>-1.40584351e-004</I>
#         <J>2.47837121e-005</J>
#         <CPcor>-9.57000000e-008</CPcor>
#         <CTcor>3.2500e-006</CTcor>
#         <!-- WBOTC not applicable unless ConductivityType = 1. -->
#         <WBOTC>0.00000000e+000</WBOTC>
#       </Coefficients>
#       <Slope>1.00000000</Slope>
#       <Offset>0.00000</Offset>
#     </ConductivitySensor>
#   </sensor>
#   <sensor Channel="3" >
#     <!-- Count, Pressure, Strain Gauge -->
#     <PressureSensor SensorID="46" >
#       <SerialNumber>7809</SerialNumber>
#       <CalibrationDate>07-Mar-18</CalibrationDate>
#       <PA0>-4.08176359e-002</PA0>
#       <PA1>4.85188419e-004</PA1>
#       <PA2>-3.51168169e-012</PA2>
#       <PTEMPA0>-5.37806900e+001</PTEMPA0>
#       <PTEMPA1>5.36620721e+001</PTEMPA1>
#       <PTEMPA2>4.87214332e-002</PTEMPA2>
#       <PTCA0>5.25213435e+005</PTCA0>
#       <PTCA1>1.79532409e+000</PTCA1>
#       <PTCA2>-2.84353509e-001</PTCA2>
#       <PTCB0>2.51668750e+001</PTCB0>
#       <PTCB1>3.75000000e-004</PTCB1>
#       <PTCB2>0.00000000e+000</PTCB2>
#       <Offset>0.000000</Offset>
#     </PressureSensor>
#   </sensor>
#   <sensor Channel="4" >
#     <!-- A/D voltage 0, pH -->
#     <pH_Sensor SensorID="43" >
#       <SerialNumber>0363</SerialNumber>
#       <CalibrationDate>16-Mar-18</CalibrationDate>
#       <Slope>4.6194</Slope>
#       <Offset>2.5947</Offset>
#     </pH_Sensor>
#   </sensor>
#   <sensor Channel="5" >
#     <!-- A/D voltage 1, Oxidation Reduction Potential -->
#     <OxidationReductionPotentialSensor SensorID="41" >
#       <SerialNumber>0363</SerialNumber>
#       <CalibrationDate>16-Mar-18</CalibrationDate>
#       <B>2.499480</B>
#       <M>-0.496195</M>
#       <Offset>0.0</Offset>
#     </OxidationReductionPotentialSensor>
#   </sensor>
#   <sensor Channel="6" >
#     <!-- A/D voltage 2, Oxygen, SBE 43 -->
#     <OxygenSensor SensorID="38" >
#       <SerialNumber>0434</SerialNumber>
#       <CalibrationDate>13-Mar-18</CalibrationDate>
#       <Use2007Equation>1</Use2007Equation>
#       <CalibrationCoefficients equation="0" >
#         <!-- Coefficients for Owens-Millard equation. -->
#         <Boc>0.0000</Boc>
#         <Soc>0.0000e+000</Soc>
#         <offset>0.0000</offset>
#         <Pcor>0.00e+000</Pcor>
#         <Tcor>0.0000</Tcor>
#         <Tau>0.0</Tau>
#       </CalibrationCoefficients>
#       <CalibrationCoefficients equation="1" >
#         <!-- Coefficients for Sea-Bird equation - SBE calibration in 2007 and later. -->
#         <Soc>4.5718e-001</Soc>
#         <offset>-0.6113</offset>
#         <A>-4.0649e-003</A>
#         <B> 2.0945e-004</B>
#         <C>-3.3182e-006</C>
#         <D0> 2.5826e+000</D0>
#         <D1> 1.92634e-004</D1>
#         <D2>-4.64803e-002</D2>
#         <E> 3.6000e-002</E>
#         <Tau20> 1.2200</Tau20>
#         <H1>-3.3000e-002</H1>
#         <H2> 5.0000e+003</H2>
#         <H3> 1.4500e+003</H3>
#       </CalibrationCoefficients>
#     </OxygenSensor>
#   </sensor>
#   <sensor Channel="7" >
#     <!-- A/D voltage 3, PAR/Logarithmic, Satlantic -->
#     <PARLog_SatlanticSensor SensorID="76" >
#       <SerialNumber>1122</SerialNumber>
#       <CalibrationDate>22-Jun-2017</CalibrationDate>
#       <a0>9.6090e-001</a0>
#       <a1>8.0780e-001</a1>
#       <Im>1.3589e+000</Im>
#       <Multiplier>1.0000e+000</Multiplier>
#     </PARLog_SatlanticSensor>
#   </sensor>
#   <sensor Channel="8" >
#     <!-- A/D voltage 4, Fluorometer, WET Labs ECO-AFL/FL -->
#     <FluoroWetlabECO_AFL_FL_Sensor SensorID="20" >
#       <SerialNumber>FLNTURT-2496</SerialNumber>
#       <CalibrationDate>25-Jan-2017</CalibrationDate>
#       <ScaleFactor>5.30000000e+001</ScaleFactor>
#       <!-- Dark output -->
#       <Vblank>0.0560</Vblank>
#     </FluoroWetlabECO_AFL_FL_Sensor>
#   </sensor>
#   <sensor Channel="9" >
#     <!-- A/D voltage 5, Turbidity Meter, WET Labs, ECO-NTU -->
#     <TurbidityMeter SensorID="67" >
#       <SerialNumber>FLNTURT-2496</SerialNumber>
#       <CalibrationDate>25-Jan-2017</CalibrationDate>
#       <ScaleFactor>176.000000</ScaleFactor>
#       <!-- Dark output -->
#       <DarkVoltage>0.072000</DarkVoltage>
#     </TurbidityMeter>
#   </sensor>
# </Sensors>
# datcnv_date = May 11 2018 14:00:57, 7.26.7.114 [datcnv_vars = 14]
# datcnv_in = C:\DATA\051118_fcr50.hex C:\DATA\SBE19plusV2_7809.xmlcon
# datcnv_skipover = 0
# datcnv_ox_hysteresis_correction = yes
# datcnv_ox_tau_correction = yes
# filter_date = May 11 2018 14:01:20, 7.26.7.114
# filter_in = C:\DATA\051118_fcr50.cnv
# filter_low_pass_tc_A = 0.030
# filter_low_pass_tc_B = 0.150
# filter_low_pass_A_vars = prdM prdE tv290C
# filter_low_pass_B_vars = depFM dz/dtM sbeox0Mg/L sbeox0PS specc c0uS/cm flECO-AFL ph orp par/sat/log turbWETntu0
# alignctd_date = May 11 2018 14:01:36, 7.26.7.114
# alignctd_in = C:\DATA\051118_fcr50.cnv
# alignctd_adv = dz/dtM 1.000, sbeox0Mg/L 1.000, sbeox0PS 1.000, specc 1.000, c0uS/cm 1.000, flECO-AFL 1.000, ph 1.000, orp 1.000, turbWETntu0 1.000                                                                                 
# file_type = ascii
*END*
     -0.560 1.4016e-13     8.1004     97.791      0.800   0.797353    -0.1604     -2.499   863.7329 2.0061e+03     0.1965     -0.549     -0.796    24.8479 0.0000e+00
     -0.560 1.5418e-12     8.0907     97.696      0.850   0.847947    -0.1493     -2.499   857.1692 1.0444e+03     0.2035     -0.549     -0.796    24.8474 0.0000e+00
     -0.560 1.6960e-11     8.0776     97.562      0.870   0.868140    -0.1534     -2.498   784.9421 3.7588e+02     0.2542     -0.549     -0.796    24.8462 0.0000e+00
     -0.560 1.8656e-10     8.0613     97.390      0.853   0.851265    -0.1649     -2.498   635.9934 2.0898e+02     0.1686     -0.549     -0.796    24.8511 0.0000e+00
     -0.560 2.0522e-09     8.0427     97.190      0.836   0.834151    -0.1686     -2.497   506.5208 1.6125e+02    -0.0682     -0.549     -0.797    24.8637 0.0000e+00
     -0.560 2.2574e-08     8.0222     96.965      0.852   0.851449    -0.1617     -2.497   427.1468 1.2593e+02    -0.1977     -0.549     -0.797    24.8770 0.0000e+00
     -0.559 2.4831e-07     8.0003     96.721      0.871   0.870181    -0.1551     -2.497   375.1872 1.1135e+02    -0.2078     -0.548     -0.796    24.8898 0.0000e+00
     -0.559      0.000     7.9804     96.500      0.871   0.870401    -0.1708     -2.496   338.6776 1.1087e+02    -0.1592     -0.549     -0.796    24.9032 0.0000e+00
     -0.559      0.000     7.9657     96.343      0.855   0.854111    -0.2042     -2.495   302.7669 1.1245e+02    -0.0369     -0.549     -0.796    24.9183 0.0000e+00
     -0.559      0.000     7.9575     96.258      0.864   0.863461    -0.2191     -2.488   269.3193 1.1440e+02     0.0492     -0.548     -0.795    24.9307 0.0000e+00
     -0.559      0.004     7.9577     96.245      1.176   1.173680    -0.2221     -2.408   474.9358 1.2097e+02     0.0577     -0.548     -0.796    24.9425 0.0000e+00
     -0.559      0.015     7.9789     96.289      3.431   3.400104    -0.2598     -1.534   943.0592 1.4063e+02     0.0971     -0.548     -0.797    24.9511 0.0000e+00
     -0.559      0.035     8.0385     96.362     10.783  10.595450    -0.3153      0.641  1211.2239 1.6294e+02     0.2203     -0.547     -0.795    24.9675 0.0000e+00
     -0.558      0.059     8.1262     96.454     22.371  21.811097    -0.3413      3.158  1215.7013 1.6964e+02     0.2967     -0.550     -0.798    24.9724 0.0000e+00
     -0.545      0.083     8.2095     96.545     31.362  30.359186    -0.3455      5.060   997.1951 1.7220e+02     0.2882     -0.544     -0.790    24.9869 0.0000e+00
     -0.512      0.104     8.2737     96.621     34.458  33.137125    -0.3018      6.233   590.7767 1.7685e+02     0.1773     -0.506     -0.734    24.9571 0.0000e+00
     -0.469      0.122     8.3221     96.679     34.823  33.300942    -0.2169      6.889   366.3980 1.7868e+02    -0.0365     -0.458     -0.664    24.5659 0.0000e+00
     -0.429      0.136     8.3591     96.706     34.907  33.228827    -0.1644      7.271   343.5155 1.7924e+02    -0.0393     -0.416     -0.604    23.9164 0.0000e+00
     -0.399      0.142     8.3901     96.697     34.974  33.154179    -0.1276      7.477   338.7132 1.7942e+02     1.2727     -0.391     -0.567    23.4081 0.0000e+00
     -0.368      0.142     8.4220     96.693     35.061  33.096839     0.0723      7.552   335.8663 1.8106e+02    15.8273     -0.366     -0.531    23.0552 0.0000e+00
     -0.329      0.137     8.4589     96.749     35.151  33.043457     0.4143      7.512   333.7863 1.8405e+02    42.5753     -0.322     -0.468    22.7882 0.0000e+00
     -0.289      0.128     8.5007     96.897     35.256  33.016660     0.5980      7.423   330.1707 1.8836e+02    57.1894     -0.282     -0.409    22.5863 0.0000e+00
     -0.253      0.112     8.5443     97.127     35.374  33.026722     0.6212      7.367   326.7382 1.9369e+02    58.3985     -0.248     -0.360    22.3966 0.0000e+00
     -0.219      0.088     8.5814     97.345     35.467  33.037946     0.6211      7.347   325.3227 1.9759e+02    57.1946     -0.212     -0.306    22.1933 0.0000e+00
     -0.195      0.058     8.6082     97.495     35.516  33.025241     0.6160      7.345   324.4128 1.9859e+02    42.7247     -0.185     -0.268    21.9890 0.0000e+00
     -0.186      0.030     8.6260     97.582     35.536  33.000048     0.6234      7.359   323.3079 1.9740e+02    16.1672     -0.178     -0.258    21.8060 0.0000e+00
     -0.191      0.008     8.6326     97.582     35.552  32.987339     0.6281      7.379   322.5471 1.9543e+02     1.6891     -0.186     -0.268    21.6648 0.0000e+00
     -0.202     -0.006     8.6279     97.484     35.582  32.998578     0.6265      7.393   322.2686 1.9384e+02     0.3942     -0.198     -0.288    21.5622 0.0000e+00
     -0.211     -0.009     8.6130     97.298     35.600  33.008881     0.6044      7.387   320.5432 1.9320e+02     0.3280     -0.209     -0.303    21.4794 0.0000e+00
     -0.215      0.001     8.5822     96.963     35.569  32.984872     0.5629      7.359   316.8277 1.9375e+02     0.3996     -0.213     -0.308    21.4205 0.0000e+00
     -0.214      0.021     8.5269     96.379     35.529  32.962352     0.5474      7.330   313.7397 1.9540e+02     0.4365     -0.211     -0.306    21.3817 0.0000e+00
     -0.209      0.047     8.4392     95.443     35.536  32.990672     0.5629      7.310   312.0299 1.9744e+02     0.4383     -0.206     -0.300    21.3607 0.0000e+00
     -0.197      0.076     8.3100     94.047     35.598  33.073252     0.5764      7.294   311.0396 1.9949e+02     0.3904     -0.198     -0.287    21.3492 0.0000e+00
     -0.175      0.102     8.1555     92.376     35.699  33.198677     0.5734      7.282   310.6289 2.0182e+02     0.2848     -0.176     -0.256    21.3553 0.0000e+00
     -0.141      0.119     8.0075     90.776     35.774  33.300451     0.5625      7.271   310.5056 2.0461e+02     0.2303     -0.140     -0.204    21.3821 0.0000e+00
     -0.098      0.124     7.8720     89.292     35.738  33.287593     0.5553      7.260   310.6676 2.0777e+02     0.2501     -0.098     -0.142    21.4127 0.0000e+00
     -0.053      0.116     7.7355     87.772     35.600  33.170271     0.5692      7.251   310.9519 2.0961e+02     0.2490     -0.049     -0.071    21.4453 0.0000e+00
     -0.017      0.095     7.5938     86.171     35.441  33.025200     0.6009      7.253   310.8455 2.0167e+02     0.2165     -0.010     -0.015    21.4898 0.0000e+00
      0.005      0.063     7.4577     84.577     35.295  32.867361     0.6181      7.264   310.7585 1.8359e+02     0.2242      0.008      0.012    21.5445 0.0000e+00
      0.015      0.028     7.3433     83.161     35.195  32.722652     0.6206      7.273   310.9330 1.7775e+02     0.2507      0.017      0.025    21.5717 0.0000e+00
      0.014     -0.006     7.2734     82.231     35.207  32.672755     0.6403      7.276   310.8035 1.8333e+02     0.3232      0.020      0.028    21.5823 0.0000e+00
      0.002     -0.034     7.2678     82.065     35.294  32.708563     0.6720      7.278   310.3109 1.7688e+02     0.4292      0.006      0.008    21.6002 0.0000e+00
     -0.017     -0.054     7.3209     82.608     35.392  32.774466     0.6820      7.282   310.2249 1.6701e+02     0.4645     -0.021     -0.029    21.5764 0.0000e+00
     -0.033     -0.064     7.4128     83.622     35.536  32.897935     0.6792      7.284   311.2273 1.6509e+02     0.4445     -0.032     -0.046    21.4858 0.0000e+00
     -0.051     -0.068     7.5248     84.887     35.709  33.058155     0.6837      7.281   312.7086 1.6480e+02     0.4009     -0.045     -0.067    21.3849 0.0000e+00
     -0.075     -0.069     7.6265     86.057     35.769  33.123828     0.6726      7.281   313.5938 1.6351e+02     0.4257     -0.076     -0.110    21.3214 0.0000e+00
     -0.095     -0.070     7.6897     86.822     35.673  33.056850     0.6369      7.285   313.8425 1.6149e+02     0.5604     -0.099     -0.142    21.2903 0.0000e+00
     -0.105     -0.069     7.7136     87.161     35.592  33.010526     0.6104      7.284   313.7371 1.6061e+02     0.6566     -0.101     -0.147    21.2775 0.0000e+00
     -0.117     -0.063     7.7036     87.098     35.635  33.071885     0.6096      7.274   313.6958 1.5942e+02     0.6741     -0.108     -0.156    21.2817 0.0000e+00
     -0.141     -0.053     7.6564     86.586     35.725  33.163625     0.6086      7.264   314.5478 1.5666e+02     0.5887     -0.139     -0.201    21.2883 0.0000e+00
     -0.164     -0.043     7.5789     85.732     35.786  33.230555     0.5889      7.255   315.9515 1.5568e+02     0.3871     -0.168     -0.244    21.3221 0.0000e+00
     -0.173     -0.033     7.4948     84.839     35.775  33.245990     0.5647      7.249   316.7286 1.5668e+02     0.2509     -0.173     -0.250    21.3760 0.0000e+00
     -0.173     -0.021     7.4251     84.131     35.712  33.223253     0.5546      7.248   316.7169 1.5643e+02     0.2233     -0.168     -0.244    21.4055 0.0000e+00
     -0.171     -0.008     7.3731     83.606     35.667  33.209762     0.5590      7.255   316.4116 1.5468e+02     0.2061     -0.168     -0.243    21.4118 0.0000e+00
     -0.171     -0.000     7.3287     83.134     35.652  33.209940     0.5627      7.269   316.1350 1.5397e+02     0.1951     -0.168     -0.244    21.4124 0.0000e+00
     -0.171      0.001     7.2776     82.563     35.666  33.225418     0.5631      7.286   316.2981 1.5452e+02     0.2123     -0.168     -0.243    21.4539 0.0000e+00
     -0.171      0.000     7.2131     81.831     35.713  33.269883     0.5637      7.301   317.2654 1.5475e+02     0.2310     -0.167     -0.243    21.5161 0.0000e+00
     -0.171 3.5796e-08     7.1391     80.993     35.748  33.302958     0.5699      7.313   318.1944 1.5508e+02     0.2389     -0.167     -0.242    21.5577 0.0000e+00
     -0.171 3.9376e-07     7.0607     80.104     35.753  33.307744     0.5917      7.322   318.3231 1.5625e+02     0.2461     -0.168     -0.243    21.5749 0.0000e+00
     -0.171 3.9376e-07     6.9784     79.168     35.776  33.327759     0.6159      7.327   318.1339 1.5712e+02     0.2267     -0.166     -0.242    21.5743 0.0000e+00
     -0.171 3.5800e-08     6.8909     78.173     35.806  33.354407     0.6233      7.329   317.7989 1.5776e+02     0.2173     -0.167     -0.243    21.5736 0.0000e+00
     -0.171 3.2828e-09     6.8019     77.165     35.828  33.375889     0.6080      7.329   317.5424 1.5826e+02     0.2863     -0.168     -0.244    21.5750 0.0000e+00
     -0.171 6.0356e-10     6.7193     76.237     35.846  33.396950     0.5783      7.329   317.7862 1.5833e+02     0.3883     -0.167     -0.243    21.5758 0.0000e+00
     -0.170 3.4112e-09     6.6477     75.437     35.862  33.418505     0.5675      7.330   317.9933 1.5868e+02     0.4433     -0.167     -0.242    21.5737 0.0000e+00
     -0.170 3.7230e-08     6.5828     74.716     35.883  33.445973     0.5781      7.333   317.8958 1.5889e+02     0.4640     -0.167     -0.242    21.5703 0.0000e+00
     -0.170 4.0950e-07     6.5211     74.030     35.907  33.475010     0.5785      7.337   317.8978 1.5895e+02     0.4863     -0.167     -0.242    21.5710 0.0000e+00
     -0.170      0.000     6.4637     73.391     35.943  33.515539     0.5716      7.340   317.5010 1.5932e+02     0.4991     -0.167     -0.243    21.5779 0.0000e+00
     -0.170      0.000     6.4076     72.767     35.978  33.554927     0.5684      7.341   316.7117 1.5948e+02     0.4964     -0.166     -0.242    21.5882 0.0000e+00
