* Sea-Bird SBE19plus  Data File:
* FileName = C:\DATA\051118_bvr_0002.hex
* Software version 2.6.3.104 SB_Terminal.dll
* Temperature SN = 7809
* Conductivity SN = 7809
* System UpLoad Time = May 11 2018 13:58:31
* <ApplicationData>
* <Seaterm232>
* <SoftwareVersion>2.6.3.104</SoftwareVersion>
* <BuildDate>30-Jun-2017</BuildDate>
* </Seaterm232>
* </ApplicationData>
* cast   2 11 May 2018 15:01:23 samples 1327 to 2456, avg = 1, stop = mag switch
# nquan = 15
# nvalues = 1003                        
# units = specified
# name 0 = depFM: Depth [fresh water, m]
# name 1 = dz/dtM: Descent Rate [m/s]
# name 2 = sbeox0Mg/L: Oxygen, SBE 43 [mg/l]
# name 3 = sbeox0PS: Oxygen, SBE 43 [% saturation]
# name 4 = specc: Specific Conductance [uS/cm]
# name 5 = c0uS/cm: Conductivity [uS/cm]
# name 6 = flECO-AFL: Fluorescence, WET Labs ECO-AFL/FL [mg/m^3]
# name 7 = ph: pH
# name 8 = orp: Oxidation Reduction Potential [mV]
# name 9 = par/sat/log: PAR/Logarithmic, Satlantic
# name 10 = turbWETntu0: Turbidity, WET Labs ECO [NTU]
# name 11 = prdM: Pressure, Strain Gauge [db]
# name 12 = prdE: Pressure, Strain Gauge [psi]
# name 13 = tv290C: Temperature [ITS-90, deg C]
# name 14 = flag:  0.000e+00
# span 0 =     -0.612,     10.507       
# span 1 =     -0.131,      0.288       
# span 2 =     0.1013,    10.4508       
# span 3 =      0.836,    107.752       
# span 4 =      4.926,     66.075       
# span 5 =   4.129241,  42.379395       
# span 6 =    -0.2591,     3.1105       
# span 7 =      6.368,      8.083       
# span 8 =   254.1073,   362.8558       
# span 9 = 1.2540e-01, 2.4746e+03       
# span 10 =    -0.4482,    14.0024      
# span 11 =     -0.601,     10.306      
# span 12 =     -0.870,     14.947      
# span 13 =     7.0491,    21.3291      
# span 14 = 0.0000e+00, 0.0000e+00      
# interval = seconds: 0.25
# start_time = May 11 2018 15:01:23 [Instrument's time stamp, header]
# bad_flag = -9.990e-29
# <Sensors count="9" >
#   <sensor Channel="1" >
#     <!-- Count, Temperature -->
#     <TemperatureSensor SensorID="58" >
#       <SerialNumber>7809</SerialNumber>
#       <CalibrationDate>09-Mar-18</CalibrationDate>
#       <A0>1.21093245e-003</A0>
#       <A1>2.84356597e-004</A1>
#       <A2>-1.94507398e-006</A2>
#       <A3>2.12806664e-007</A3>
#       <Slope>1.00000000</Slope>
#       <Offset>0.0000</Offset>
#     </TemperatureSensor>
#   </sensor>
#   <sensor Channel="2" >
#     <!-- Frequency 0, Conductivity -->
#     <ConductivitySensor SensorID="3" >
#       <SerialNumber>7809</SerialNumber>
#       <CalibrationDate>09-Mar-18</CalibrationDate>
#       <UseG_J>1</UseG_J>
#       <!-- Cell const and series R are applicable only for wide range sensors. -->
#       <SeriesR>0.0000</SeriesR>
#       <CellConst>2000.0000</CellConst>
#       <ConductivityType>0</ConductivityType>
#       <Coefficients equation="0" >
#         <A>0.00000000e+000</A>
#         <B>0.00000000e+000</B>
#         <C>0.00000000e+000</C>
#         <D>0.00000000e+000</D>
#         <M>0.0</M>
#         <CPcor>-9.57000000e-008</CPcor>
#       </Coefficients>
#       <Coefficients equation="1" >
#         <G>-1.00672082e+000</G>
#         <H>1.26906489e-001</H>
#         <I>-1.40584351e-004</I>
#         <J>2.47837121e-005</J>
#         <CPcor>-9.57000000e-008</CPcor>
#         <CTcor>3.2500e-006</CTcor>
#         <!-- WBOTC not applicable unless ConductivityType = 1. -->
#         <WBOTC>0.00000000e+000</WBOTC>
#       </Coefficients>
#       <Slope>1.00000000</Slope>
#       <Offset>0.00000</Offset>
#     </ConductivitySensor>
#   </sensor>
#   <sensor Channel="3" >
#     <!-- Count, Pressure, Strain Gauge -->
#     <PressureSensor SensorID="46" >
#       <SerialNumber>7809</SerialNumber>
#       <CalibrationDate>07-Mar-18</CalibrationDate>
#       <PA0>-4.08176359e-002</PA0>
#       <PA1>4.85188419e-004</PA1>
#       <PA2>-3.51168169e-012</PA2>
#       <PTEMPA0>-5.37806900e+001</PTEMPA0>
#       <PTEMPA1>5.36620721e+001</PTEMPA1>
#       <PTEMPA2>4.87214332e-002</PTEMPA2>
#       <PTCA0>5.25213435e+005</PTCA0>
#       <PTCA1>1.79532409e+000</PTCA1>
#       <PTCA2>-2.84353509e-001</PTCA2>
#       <PTCB0>2.51668750e+001</PTCB0>
#       <PTCB1>3.75000000e-004</PTCB1>
#       <PTCB2>0.00000000e+000</PTCB2>
#       <Offset>0.000000</Offset>
#     </PressureSensor>
#   </sensor>
#   <sensor Channel="4" >
#     <!-- A/D voltage 0, pH -->
#     <pH_Sensor SensorID="43" >
#       <SerialNumber>0363</SerialNumber>
#       <CalibrationDate>16-Mar-18</CalibrationDate>
#       <Slope>4.6194</Slope>
#       <Offset>2.5947</Offset>
#     </pH_Sensor>
#   </sensor>
#   <sensor Channel="5" >
#     <!-- A/D voltage 1, Oxidation Reduction Potential -->
#     <OxidationReductionPotentialSensor SensorID="41" >
#       <SerialNumber>0363</SerialNumber>
#       <CalibrationDate>16-Mar-18</CalibrationDate>
#       <B>2.499480</B>
#       <M>-0.496195</M>
#       <Offset>0.0</Offset>
#     </OxidationReductionPotentialSensor>
#   </sensor>
#   <sensor Channel="6" >
#     <!-- A/D voltage 2, Oxygen, SBE 43 -->
#     <OxygenSensor SensorID="38" >
#       <SerialNumber>0434</SerialNumber>
#       <CalibrationDate>13-Mar-18</CalibrationDate>
#       <Use2007Equation>1</Use2007Equation>
#       <CalibrationCoefficients equation="0" >
#         <!-- Coefficients for Owens-Millard equation. -->
#         <Boc>0.0000</Boc>
#         <Soc>0.0000e+000</Soc>
#         <offset>0.0000</offset>
#         <Pcor>0.00e+000</Pcor>
#         <Tcor>0.0000</Tcor>
#         <Tau>0.0</Tau>
#       </CalibrationCoefficients>
#       <CalibrationCoefficients equation="1" >
#         <!-- Coefficients for Sea-Bird equation - SBE calibration in 2007 and later. -->
#         <Soc>4.5718e-001</Soc>
#         <offset>-0.6113</offset>
#         <A>-4.0649e-003</A>
#         <B> 2.0945e-004</B>
#         <C>-3.3182e-006</C>
#         <D0> 2.5826e+000</D0>
#         <D1> 1.92634e-004</D1>
#         <D2>-4.64803e-002</D2>
#         <E> 3.6000e-002</E>
#         <Tau20> 1.2200</Tau20>
#         <H1>-3.3000e-002</H1>
#         <H2> 5.0000e+003</H2>
#         <H3> 1.4500e+003</H3>
#       </CalibrationCoefficients>
#     </OxygenSensor>
#   </sensor>
#   <sensor Channel="7" >
#     <!-- A/D voltage 3, PAR/Logarithmic, Satlantic -->
#     <PARLog_SatlanticSensor SensorID="76" >
#       <SerialNumber>1122</SerialNumber>
#       <CalibrationDate>22-Jun-2017</CalibrationDate>
#       <a0>9.6090e-001</a0>
#       <a1>8.0780e-001</a1>
#       <Im>1.3589e+000</Im>
#       <Multiplier>1.0000e+000</Multiplier>
#     </PARLog_SatlanticSensor>
#   </sensor>
#   <sensor Channel="8" >
#     <!-- A/D voltage 4, Fluorometer, WET Labs ECO-AFL/FL -->
#     <FluoroWetlabECO_AFL_FL_Sensor SensorID="20" >
#       <SerialNumber>FLNTURT-2496</SerialNumber>
#       <CalibrationDate>25-Jan-2017</CalibrationDate>
#       <ScaleFactor>5.30000000e+001</ScaleFactor>
#       <!-- Dark output -->
#       <Vblank>0.0560</Vblank>
#     </FluoroWetlabECO_AFL_FL_Sensor>
#   </sensor>
#   <sensor Channel="9" >
#     <!-- A/D voltage 5, Turbidity Meter, WET Labs, ECO-NTU -->
#     <TurbidityMeter SensorID="67" >
#       <SerialNumber>FLNTURT-2496</SerialNumber>
#       <CalibrationDate>25-Jan-2017</CalibrationDate>
#       <ScaleFactor>176.000000</ScaleFactor>
#       <!-- Dark output -->
#       <DarkVoltage>0.072000</DarkVoltage>
#     </TurbidityMeter>
#   </sensor>
# </Sensors>
# datcnv_date = May 11 2018 14:00:56, 7.26.7.114 [datcnv_vars = 14]
# datcnv_in = C:\DATA\051118_bvr50.hex C:\DATA\SBE19plusV2_7809.xmlcon
# datcnv_skipover = 0
# datcnv_ox_hysteresis_correction = yes
# datcnv_ox_tau_correction = yes
# filter_date = May 11 2018 14:01:20, 7.26.7.114
# filter_in = C:\DATA\051118_bvr50.cnv
# filter_low_pass_tc_A = 0.030
# filter_low_pass_tc_B = 0.150
# filter_low_pass_A_vars = prdM prdE tv290C
# filter_low_pass_B_vars = depFM dz/dtM sbeox0Mg/L sbeox0PS specc c0uS/cm flECO-AFL ph orp par/sat/log turbWETntu0
# alignctd_date = May 11 2018 14:01:36, 7.26.7.114
# alignctd_in = C:\DATA\051118_bvr50.cnv
# alignctd_adv = dz/dtM 1.000, sbeox0Mg/L 1.000, sbeox0PS 1.000, specc 1.000, c0uS/cm 1.000, flECO-AFL 1.000, ph 1.000, orp 1.000, turbWETntu0 1.000                                                                                 
# file_type = ascii
*END*
     -0.612      0.000     8.4412     87.142      5.606   4.696656    -0.2551      6.775   361.2338 2.5709e+02    -0.3875     -0.600     -0.870    16.8738 0.0000e+00
     -0.612      0.000     8.4381     87.144      4.926   4.129241    -0.2591      6.784   360.3738 2.6337e+02    -0.4380     -0.600     -0.870    16.8765 0.0000e+00
     -0.612      0.001     8.4396     87.221      5.294   4.442148    -0.2575      6.795   359.1166 2.5792e+02    -0.4482     -0.600     -0.870    16.8776 0.0000e+00
     -0.612      0.004     8.4482     87.393      5.866   4.928230    -0.1245      6.818   356.9598 2.5043e+02     0.0696     -0.600     -0.870    16.8820 0.0000e+00
     -0.612      0.014     8.4629     87.665      9.844   8.293906     0.1255      6.914   332.3178 2.5693e+02     1.0928     -0.600     -0.870    16.8854 0.0000e+00
     -0.612      0.044     8.4524     87.990     19.839  16.836881     0.2571      7.196   284.5300 3.1823e+02     1.6688     -0.601     -0.870    16.9041 0.0000e+00
     -0.610      0.098     8.3777     88.318     28.156  24.206438     0.2712      7.599   257.3677 9.0720e+02     1.8153     -0.599     -0.869    16.9330 0.0000e+00
     -0.601      0.165     8.2572     88.621     30.268  26.509200     0.3796      7.903   254.2752 1.9665e+03     3.1077     -0.595     -0.863    16.9943 0.0000e+00
     -0.567      0.226     8.1443     88.855     29.953  26.714400     0.5755      8.043   254.1073 2.4746e+03     5.4854     -0.579     -0.840    17.0155 0.0000e+00
     -0.482      0.269     8.0645     88.995     29.544  26.688160     0.6721      8.083   254.8217 1.9803e+03     6.7592     -0.492     -0.714    17.1144 0.0000e+00
     -0.358      0.288     8.0188     89.107     29.259  26.636843     0.6747      8.071   256.3745 1.0869e+03     6.7596     -0.343     -0.497    17.7887 0.0000e+00
     -0.247      0.279     8.0013     89.272     29.090  26.602150     0.6708      8.035   258.5986 1.0364e+03     5.6121     -0.225     -0.327    18.8367 0.0000e+00
     -0.177      0.244     8.0029     89.505     28.995  26.586313     0.6624      7.985   260.4619 1.7215e+03     3.5061     -0.163     -0.235    19.6949 0.0000e+00
     -0.137      0.188     8.0166     89.794     28.930  26.572441     0.6557      7.929   261.4381 1.9672e+03     2.3536     -0.129     -0.187    20.2471 0.0000e+00
     -0.112      0.126     8.0368     90.109     28.886  26.561466     0.6543      7.871   262.1416 1.9382e+03     2.2362     -0.109     -0.158    20.5628 0.0000e+00
     -0.092      0.077     8.0589     90.414     28.887  26.580650     0.6635      7.817   262.9454 2.0995e+03     2.2397     -0.091     -0.130    20.7472 0.0000e+00
     -0.074      0.051     8.0799     90.680     28.843  26.550437     0.6847      7.767   263.9286 2.2336e+03     2.2736     -0.069     -0.100    20.8565 0.0000e+00
     -0.068      0.044     8.0990     90.904     28.731  26.450148     0.6993      7.722   265.1675 2.1363e+03     2.2796     -0.061     -0.088    20.9281 0.0000e+00
     -0.073      0.051     8.1137     91.064     28.661  26.383969     0.6927      7.685   266.3092 1.6929e+03     2.2520     -0.073     -0.106    20.9781 0.0000e+00
     -0.073      0.062     8.1251     91.160     28.674  26.385212     0.6784      7.660   267.2367 1.2043e+03     2.1836     -0.079     -0.115    21.0058 0.0000e+00
     -0.055      0.074     8.1387     91.238     28.787  26.465161     0.6830      7.643   268.5525 1.1988e+03     2.1232     -0.061     -0.088    21.0265 0.0000e+00
     -0.020      0.085     8.1539     91.344     28.943  26.588661     0.6932      7.630   272.6681 1.3587e+03     2.1322     -0.021     -0.031    21.0257 0.0000e+00
      0.019      0.094     8.1863     91.711     29.033  26.672028     0.6825      7.621   281.8937 1.4318e+03     2.1397      0.025      0.035    21.0246 0.0000e+00
      0.048      0.096     8.2609     92.609     29.054  26.711227     0.6726      7.613   291.5639 1.4789e+03     2.1228      0.052      0.076    21.0217 0.0000e+00
      0.063      0.092     8.3579     93.780     29.062  26.745161     0.6654      7.605   295.6357 1.1742e+03     2.1110      0.060      0.089    20.9592 0.0000e+00
      0.077      0.086     8.4216     94.575     29.056  26.764883     0.6504      7.597   295.7624 7.2995e+02     2.1195      0.072      0.107    20.9089 0.0000e+00
      0.097      0.080     8.4225     94.654     29.026  26.759241     0.6474      7.592   294.0427 5.2833e+02     2.1642      0.095      0.139    20.9176 0.0000e+00
      0.120      0.069     8.3721     94.139     28.988  26.740466     0.6477      7.590   289.1255 5.2934e+02     2.1629      0.116      0.167    20.9596 0.0000e+00
      0.146      0.047     8.2832     93.173     28.964  26.728382     0.6448      7.592   286.7279 6.1329e+02     2.1342      0.142      0.206    21.0109 0.0000e+00
      0.171      0.011     8.1614     91.823     28.969  26.740140     0.6497      7.596   291.2103 8.3776e+02     2.1529      0.173      0.251    21.0541 0.0000e+00
      0.181     -0.034     8.0145     90.182     28.981  26.755648     0.6519      7.600   292.0414 9.8199e+02     2.1458      0.186      0.270    21.0947 0.0000e+00
      0.165     -0.076     7.8620     88.474     28.946  26.725413     0.6524      7.603   286.0223 7.8413e+02     2.1086      0.172      0.249    21.1220 0.0000e+00
      0.124     -0.108     7.7346     87.051     28.837  26.628554     0.6653      7.604   281.5859 5.9592e+02     2.1307      0.128      0.185    21.1382 0.0000e+00
      0.069     -0.126     7.6423     86.016     28.736  26.536954     0.6795      7.605   280.9056 4.8277e+02     2.1995      0.064      0.093    21.1506 0.0000e+00
      0.020     -0.131     7.5788     85.289     28.709  26.506795     0.6856      7.608   282.8721 4.0313e+02     2.2383      0.012      0.017    21.1541 0.0000e+00
     -0.011     -0.125     7.5401     84.809     28.737  26.517877     0.6936      7.613   285.5745 4.9963e+02     2.2338     -0.017     -0.024    21.1584 0.0000e+00
     -0.028     -0.110     7.5193     84.513     28.790  26.543945     0.6930      7.617   286.7358 6.0560e+02     2.2054     -0.028     -0.041    21.1672 0.0000e+00
     -0.044     -0.091     7.5093     84.350     28.835  26.567965     0.6873      7.618   287.7923 6.2529e+02     2.2008     -0.038     -0.056    21.1698 0.0000e+00
     -0.069     -0.074     7.5038     84.270     28.827  26.554301     0.6981      7.616   288.9712 6.9667e+02     2.2389     -0.065     -0.094    21.1678 0.0000e+00
     -0.099     -0.062     7.5005     84.238     28.772  26.505711     0.7041      7.614   287.3954 9.5186e+02     2.2696     -0.102     -0.147    21.1395 0.0000e+00
     -0.118     -0.052     7.4949     84.190     28.747  26.488424     0.6777      7.611   284.5704 1.4095e+03     2.2674     -0.124     -0.178    21.0904 0.0000e+00
     -0.123     -0.041     7.4811     84.047     28.725  26.472279     0.6452      7.608   283.8956 1.7691e+03     2.2429     -0.121     -0.175    21.0563 0.0000e+00
     -0.123     -0.028     7.4592     83.805     28.686  26.437501     0.6424      7.608   284.5701 1.8112e+03     2.2165     -0.118     -0.171    21.0483 0.0000e+00
     -0.127     -0.017     7.4306     83.483     28.699  26.448890     0.6525      7.609   284.5521 1.7028e+03     2.2235     -0.126     -0.183    21.0553 0.0000e+00
     -0.132     -0.007     7.3984     83.121     28.735  26.482996     0.6484      7.609   284.3669 1.6975e+03     2.2355     -0.131     -0.189    21.0664 0.0000e+00
     -0.137      0.002     7.3686     82.786     28.720  26.468916     0.6664      7.608   284.9986 1.8344e+03     2.2087     -0.135     -0.195    21.0752 0.0000e+00
     -0.140      0.011     7.3390     82.441     28.657  26.405632     0.7225      7.607   285.8225 1.9193e+03     2.2052     -0.141     -0.203    21.0769 0.0000e+00
     -0.137      0.017     7.3020     81.983     28.616  26.352769     0.7580      7.608   286.6711 1.8662e+03     2.2547     -0.138     -0.201    21.0744 0.0000e+00
     -0.123      0.017     7.2627     81.455     28.634  26.337681     0.7645      7.612   287.3435 1.7552e+03     2.2879     -0.122     -0.179    21.0751 0.0000e+00
     -0.107      0.011     7.2247     80.920     28.690  26.350146     0.7826      7.616   286.8118 1.3504e+03     2.2705     -0.101     -0.145    21.0781 0.0000e+00
     -0.101      0.002     7.1821     80.359     28.752  26.376443     0.8109      7.620   285.9201 8.4143e+02     2.2588     -0.094     -0.135    21.0726 0.0000e+00
     -0.107     -0.007     7.1370     79.818     28.794  26.401621     0.8217      7.622   286.7149 1.1096e+03     2.2679     -0.103     -0.149    21.0533 0.0000e+00
     -0.119     -0.013     7.1007     79.412     28.792  26.400571     0.8216      7.618   288.7635 1.8038e+03     2.2580     -0.117     -0.170    20.9930 0.0000e+00
     -0.132     -0.014     7.0768     79.157     28.747  26.363753     0.8192      7.613   290.4712 1.7806e+03     2.2008     -0.131     -0.191    20.9090 0.0000e+00
     -0.139     -0.009     7.0610     78.980     28.718  26.337420     0.8109      7.608   291.7887 1.4991e+03     2.1257     -0.141     -0.204    20.8522 0.0000e+00
     -0.136     -0.003     7.0506     78.828     28.731  26.336158     0.8125      7.606   292.6484 1.8455e+03     2.1137     -0.135     -0.195    20.8319 0.0000e+00
     -0.126      0.002     7.0422     78.669     28.772  26.348473     0.8297      7.608   292.7775 2.1860e+03     2.1162     -0.122     -0.178    20.8397 0.0000e+00
     -0.121      0.004     7.0294     78.469     28.807  26.359303     0.8725      7.611   293.0062 2.1881e+03     2.0939     -0.116     -0.168    20.8517 0.0000e+00
     -0.121      0.004     7.0080     78.205     28.797  26.340088     0.9254      7.614   293.1766 2.2088e+03     2.0888     -0.118     -0.169    20.8582 0.0000e+00
     -0.126     -0.001     6.9810     77.895     28.763  26.306611     0.9535      7.615   292.7724 2.2368e+03     2.0850     -0.124     -0.179    20.8379 0.0000e+00
     -0.129     -0.008     6.9511     77.556     28.728  26.271996     0.9646      7.618   292.6795 2.2527e+03     2.0781     -0.128     -0.186    20.7795 0.0000e+00
     -0.128     -0.014     6.9203     77.188     28.702  26.239030     0.9498      7.620   292.7410 2.2596e+03     2.0670     -0.125     -0.183    20.7367 0.0000e+00
     -0.128     -0.019     6.8891     76.793     28.707  26.225466     0.9124      7.622   292.5705 2.2471e+03     2.0722     -0.123     -0.178    20.7269 0.0000e+00
     -0.134     -0.020     6.8562     76.378     28.737  26.234955     0.8983      7.624   292.5966 2.2046e+03     2.1107     -0.128     -0.186    20.7227 0.0000e+00
     -0.144     -0.019     6.8218     75.971     28.738  26.226745     0.8992      7.625   292.7987 1.8588e+03     2.1355     -0.142     -0.206    20.7244 0.0000e+00
     -0.155     -0.016     6.7884     75.594     28.699  26.189688     0.8860      7.625   293.0351 1.1669e+03     2.1285     -0.154     -0.224    20.7147 0.0000e+00
     -0.160     -0.011     6.7575     75.246     28.677  26.167858     0.8585      7.625   293.2179 1.0630e+03     2.1168     -0.161     -0.232    20.6724 0.0000e+00
     -0.159     -0.006     6.7271     74.901     28.664  26.153280     0.8234      7.624   293.4602 1.7422e+03     2.1163     -0.158     -0.229    20.6330 0.0000e+00
