* Sea-Bird SBE19plus  Data File:
* FileName = C:\DATA\051118_bvr_0001.hex
* Software version 2.6.3.104 SB_Terminal.dll
* Temperature SN = 7809
* Conductivity SN = 7809
* System UpLoad Time = May 11 2018 13:58:01
* <ApplicationData>
* <Seaterm232>
* <SoftwareVersion>2.6.3.104</SoftwareVersion>
* <BuildDate>30-Jun-2017</BuildDate>
* </Seaterm232>
* </ApplicationData>
* cast   1 11 May 2018 14:52:51 samples 1 to 1326, avg = 1, stop = mag switch
# nquan = 15
# nvalues = 1145                        
# units = specified
# name 0 = depFM: Depth [fresh water, m]
# name 1 = dz/dtM: Descent Rate [m/s]
# name 2 = sbeox0Mg/L: Oxygen, SBE 43 [mg/l]
# name 3 = sbeox0PS: Oxygen, SBE 43 [% saturation]
# name 4 = specc: Specific Conductance [uS/cm]
# name 5 = c0uS/cm: Conductivity [uS/cm]
# name 6 = flECO-AFL: Fluorescence, WET Labs ECO-AFL/FL [mg/m^3]
# name 7 = ph: pH
# name 8 = orp: Oxidation Reduction Potential [mV]
# name 9 = par/sat/log: PAR/Logarithmic, Satlantic
# name 10 = turbWETntu0: Turbidity, WET Labs ECO [NTU]
# name 11 = prdM: Pressure, Strain Gauge [db]
# name 12 = prdE: Pressure, Strain Gauge [psi]
# name 13 = tv290C: Temperature [ITS-90, deg C]
# name 14 = flag:  0.000e+00
# span 0 =     -0.616,     10.393       
# span 1 =     -0.085,      0.199       
# span 2 =     0.1378,    10.4204       
# span 3 =      1.138,    106.554       
# span 4 =      1.888,     56.408       
# span 5 =   1.932725,  36.189300       
# span 6 =    -0.2274,     3.3714       
# span 7 =      5.556,      7.647       
# span 8 =  -524.0115,  1020.2352       
# span 9 = 1.2533e-01, 2.3316e+03       
# span 10 =    -0.6691,    15.9711      
# span 11 =     -0.606,     10.193      
# span 12 =     -0.879,     14.784      
# span 13 =     7.0702,    26.3852      
# span 14 = 0.0000e+00, 0.0000e+00      
# interval = seconds: 0.25
# start_time = May 11 2018 14:52:51 [Instrument's time stamp, header]
# bad_flag = -9.990e-29
# <Sensors count="9" >
#   <sensor Channel="1" >
#     <!-- Count, Temperature -->
#     <TemperatureSensor SensorID="58" >
#       <SerialNumber>7809</SerialNumber>
#       <CalibrationDate>09-Mar-18</CalibrationDate>
#       <A0>1.21093245e-003</A0>
#       <A1>2.84356597e-004</A1>
#       <A2>-1.94507398e-006</A2>
#       <A3>2.12806664e-007</A3>
#       <Slope>1.00000000</Slope>
#       <Offset>0.0000</Offset>
#     </TemperatureSensor>
#   </sensor>
#   <sensor Channel="2" >
#     <!-- Frequency 0, Conductivity -->
#     <ConductivitySensor SensorID="3" >
#       <SerialNumber>7809</SerialNumber>
#       <CalibrationDate>09-Mar-18</CalibrationDate>
#       <UseG_J>1</UseG_J>
#       <!-- Cell const and series R are applicable only for wide range sensors. -->
#       <SeriesR>0.0000</SeriesR>
#       <CellConst>2000.0000</CellConst>
#       <ConductivityType>0</ConductivityType>
#       <Coefficients equation="0" >
#         <A>0.00000000e+000</A>
#         <B>0.00000000e+000</B>
#         <C>0.00000000e+000</C>
#         <D>0.00000000e+000</D>
#         <M>0.0</M>
#         <CPcor>-9.57000000e-008</CPcor>
#       </Coefficients>
#       <Coefficients equation="1" >
#         <G>-1.00672082e+000</G>
#         <H>1.26906489e-001</H>
#         <I>-1.40584351e-004</I>
#         <J>2.47837121e-005</J>
#         <CPcor>-9.57000000e-008</CPcor>
#         <CTcor>3.2500e-006</CTcor>
#         <!-- WBOTC not applicable unless ConductivityType = 1. -->
#         <WBOTC>0.00000000e+000</WBOTC>
#       </Coefficients>
#       <Slope>1.00000000</Slope>
#       <Offset>0.00000</Offset>
#     </ConductivitySensor>
#   </sensor>
#   <sensor Channel="3" >
#     <!-- Count, Pressure, Strain Gauge -->
#     <PressureSensor SensorID="46" >
#       <SerialNumber>7809</SerialNumber>
#       <CalibrationDate>07-Mar-18</CalibrationDate>
#       <PA0>-4.08176359e-002</PA0>
#       <PA1>4.85188419e-004</PA1>
#       <PA2>-3.51168169e-012</PA2>
#       <PTEMPA0>-5.37806900e+001</PTEMPA0>
#       <PTEMPA1>5.36620721e+001</PTEMPA1>
#       <PTEMPA2>4.87214332e-002</PTEMPA2>
#       <PTCA0>5.25213435e+005</PTCA0>
#       <PTCA1>1.79532409e+000</PTCA1>
#       <PTCA2>-2.84353509e-001</PTCA2>
#       <PTCB0>2.51668750e+001</PTCB0>
#       <PTCB1>3.75000000e-004</PTCB1>
#       <PTCB2>0.00000000e+000</PTCB2>
#       <Offset>0.000000</Offset>
#     </PressureSensor>
#   </sensor>
#   <sensor Channel="4" >
#     <!-- A/D voltage 0, pH -->
#     <pH_Sensor SensorID="43" >
#       <SerialNumber>0363</SerialNumber>
#       <CalibrationDate>16-Mar-18</CalibrationDate>
#       <Slope>4.6194</Slope>
#       <Offset>2.5947</Offset>
#     </pH_Sensor>
#   </sensor>
#   <sensor Channel="5" >
#     <!-- A/D voltage 1, Oxidation Reduction Potential -->
#     <OxidationReductionPotentialSensor SensorID="41" >
#       <SerialNumber>0363</SerialNumber>
#       <CalibrationDate>16-Mar-18</CalibrationDate>
#       <B>2.499480</B>
#       <M>-0.496195</M>
#       <Offset>0.0</Offset>
#     </OxidationReductionPotentialSensor>
#   </sensor>
#   <sensor Channel="6" >
#     <!-- A/D voltage 2, Oxygen, SBE 43 -->
#     <OxygenSensor SensorID="38" >
#       <SerialNumber>0434</SerialNumber>
#       <CalibrationDate>13-Mar-18</CalibrationDate>
#       <Use2007Equation>1</Use2007Equation>
#       <CalibrationCoefficients equation="0" >
#         <!-- Coefficients for Owens-Millard equation. -->
#         <Boc>0.0000</Boc>
#         <Soc>0.0000e+000</Soc>
#         <offset>0.0000</offset>
#         <Pcor>0.00e+000</Pcor>
#         <Tcor>0.0000</Tcor>
#         <Tau>0.0</Tau>
#       </CalibrationCoefficients>
#       <CalibrationCoefficients equation="1" >
#         <!-- Coefficients for Sea-Bird equation - SBE calibration in 2007 and later. -->
#         <Soc>4.5718e-001</Soc>
#         <offset>-0.6113</offset>
#         <A>-4.0649e-003</A>
#         <B> 2.0945e-004</B>
#         <C>-3.3182e-006</C>
#         <D0> 2.5826e+000</D0>
#         <D1> 1.92634e-004</D1>
#         <D2>-4.64803e-002</D2>
#         <E> 3.6000e-002</E>
#         <Tau20> 1.2200</Tau20>
#         <H1>-3.3000e-002</H1>
#         <H2> 5.0000e+003</H2>
#         <H3> 1.4500e+003</H3>
#       </CalibrationCoefficients>
#     </OxygenSensor>
#   </sensor>
#   <sensor Channel="7" >
#     <!-- A/D voltage 3, PAR/Logarithmic, Satlantic -->
#     <PARLog_SatlanticSensor SensorID="76" >
#       <SerialNumber>1122</SerialNumber>
#       <CalibrationDate>22-Jun-2017</CalibrationDate>
#       <a0>9.6090e-001</a0>
#       <a1>8.0780e-001</a1>
#       <Im>1.3589e+000</Im>
#       <Multiplier>1.0000e+000</Multiplier>
#     </PARLog_SatlanticSensor>
#   </sensor>
#   <sensor Channel="8" >
#     <!-- A/D voltage 4, Fluorometer, WET Labs ECO-AFL/FL -->
#     <FluoroWetlabECO_AFL_FL_Sensor SensorID="20" >
#       <SerialNumber>FLNTURT-2496</SerialNumber>
#       <CalibrationDate>25-Jan-2017</CalibrationDate>
#       <ScaleFactor>5.30000000e+001</ScaleFactor>
#       <!-- Dark output -->
#       <Vblank>0.0560</Vblank>
#     </FluoroWetlabECO_AFL_FL_Sensor>
#   </sensor>
#   <sensor Channel="9" >
#     <!-- A/D voltage 5, Turbidity Meter, WET Labs, ECO-NTU -->
#     <TurbidityMeter SensorID="67" >
#       <SerialNumber>FLNTURT-2496</SerialNumber>
#       <CalibrationDate>25-Jan-2017</CalibrationDate>
#       <ScaleFactor>176.000000</ScaleFactor>
#       <!-- Dark output -->
#       <DarkVoltage>0.072000</DarkVoltage>
#     </TurbidityMeter>
#   </sensor>
# </Sensors>
# datcnv_date = May 11 2018 14:00:56, 7.26.7.114 [datcnv_vars = 14]
# datcnv_in = C:\DATA\051118_bvr49.hex C:\DATA\SBE19plusV2_7809.xmlcon
# datcnv_skipover = 0
# datcnv_ox_hysteresis_correction = yes
# datcnv_ox_tau_correction = yes
# filter_date = May 11 2018 14:01:19, 7.26.7.114
# filter_in = C:\DATA\051118_bvr49.cnv
# filter_low_pass_tc_A = 0.030
# filter_low_pass_tc_B = 0.150
# filter_low_pass_A_vars = prdM prdE tv290C
# filter_low_pass_B_vars = depFM dz/dtM sbeox0Mg/L sbeox0PS specc c0uS/cm flECO-AFL ph orp par/sat/log turbWETntu0
# alignctd_date = May 11 2018 14:01:36, 7.26.7.114
# alignctd_in = C:\DATA\051118_bvr49.cnv
# alignctd_adv = dz/dtM 1.000, sbeox0Mg/L 1.000, sbeox0PS 1.000, specc 1.000, c0uS/cm 1.000, flECO-AFL 1.000, ph 1.000, orp 1.000, turbWETntu0 1.000                                                                                 
# file_type = ascii
*END*
     -0.616      0.000     7.9426     98.259      1.947   1.994057    -0.2078      5.556  1020.2352 1.4404e+02    -0.6691     -0.604     -0.876    26.3852 0.0000e+00
     -0.616      0.000     7.9469     98.263      1.888   1.932725    -0.2174      5.731   554.5637 1.3582e+02    -0.6321     -0.604     -0.876    26.3439 0.0000e+00
     -0.616      0.001     7.9508     98.278      2.268   2.317463    -0.2274      6.039  -505.8533 1.2883e+02    -0.4874     -0.604     -0.876    26.2857 0.0000e+00
     -0.616      0.008     7.9651     98.287      5.787   5.884873    -0.2194      6.209  -524.0115 1.3306e+02    -0.2623     -0.604     -0.875    26.2430 0.0000e+00
     -0.616      0.027     8.0284     98.297     13.960  14.046871    -0.2119      6.287   335.0136 1.8418e+02    -0.1685     -0.605     -0.877    26.1933 0.0000e+00
     -0.616      0.057     8.1543     98.300     22.581  22.394478    -0.2194      6.545   559.5699 6.1773e+02    -0.1779     -0.604     -0.876    26.1715 0.0000e+00
     -0.611      0.093     8.2913     98.280     27.369  26.726430    -0.2084      6.921   407.8300 1.0680e+03     0.1434     -0.606     -0.879    26.1500 0.0000e+00
     -0.588      0.131     8.3994     98.258     28.749  27.700832     0.0035      7.200   387.6969 1.2691e+03     3.5632     -0.590     -0.857    26.1819 0.0000e+00
     -0.537      0.165     8.4826     98.236     28.931  27.572313     0.3938      7.288   367.2495 1.8592e+03     9.7675     -0.528     -0.766    25.8567 0.0000e+00
     -0.474      0.189     8.5497     98.224     29.067  27.457988     0.6055      7.238   343.6079 2.3316e+03    13.1463     -0.462     -0.671    24.7904 0.0000e+00
     -0.414      0.199     8.6022     98.246     29.260  27.461131     0.6240      7.194   331.4869 2.3114e+03    13.1968     -0.406     -0.589    23.7738 0.0000e+00
     -0.357      0.197     8.6432     98.344     29.474  27.546575     0.6995      7.232   332.0301 1.8116e+03    10.3778     -0.346     -0.501    23.1340 0.0000e+00
     -0.307      0.186     8.6822     98.580     29.670  27.665463     0.8383      7.285   333.6567 1.2149e+03     5.2154     -0.296     -0.429    22.6145 0.0000e+00
     -0.268      0.174     8.7237     98.960     29.797  27.755558     0.9051      7.289   332.3114 1.0246e+03     2.3858     -0.262     -0.380    22.1906 0.0000e+00
     -0.233      0.162     8.7662     99.440     29.856  27.810410     0.9098      7.282   330.5626 6.1224e+02     2.1049     -0.232     -0.337    21.8795 0.0000e+00
     -0.192      0.149     8.8084     99.969     29.851  27.820694     0.8873      7.292   330.2362 2.1624e+02     2.0938     -0.189     -0.274    21.6979 0.0000e+00
     -0.147      0.137     8.8513    100.508     29.761  27.752929     0.8351      7.298   330.0858 1.7335e+02     2.1290     -0.142     -0.205    21.5980 0.0000e+00
     -0.109      0.131     8.8897    100.975     29.614  27.626061     0.8022      7.293   330.7230 1.6132e+02     2.1647     -0.104     -0.150    21.5535 0.0000e+00
     -0.079      0.130     8.8904    100.990     29.469  27.493206     0.7932      7.274   331.4014 1.7563e+02     2.1591     -0.074     -0.106    21.5573 0.0000e+00
     -0.059      0.128     8.8330    100.319     29.394  27.416533     0.8266      7.244   330.0285 4.5462e+02     2.1225     -0.058     -0.084    21.5979 0.0000e+00
     -0.037      0.123     8.7560     99.400     29.388  27.397476     0.8941      7.208   328.4051 7.2939e+02     2.1184     -0.044     -0.064    21.6260 0.0000e+00
      0.002      0.114     8.6752     98.433     29.397  27.389755     0.9288      7.176   327.9496 4.7652e+02     2.1404     -0.002     -0.003    21.6408 0.0000e+00
      0.050      0.101     8.5623     97.118     29.404  27.386647     0.9333      7.159   328.0481 1.6310e+02     2.1444      0.054      0.078    21.6473 0.0000e+00
      0.085      0.082     8.4197     95.483     29.449  27.423379     0.9304      7.152   328.2197 1.1014e+02     2.1363      0.092      0.133    21.6368 0.0000e+00
      0.100      0.057     8.2727     93.804     29.553  27.516397     0.9210      7.148   328.1318 1.0131e+02     2.1344      0.103      0.150    21.6094 0.0000e+00
      0.101      0.028     8.1466     92.359     29.673  27.622360     0.9205      7.145   328.0168 9.7023e+01     2.1519      0.100      0.144    21.5781 0.0000e+00
      0.096      0.003     8.0645     91.410     29.751  27.688620     0.9247      7.139   327.9480 9.7764e+01     2.1646      0.094      0.137    21.5594 0.0000e+00
      0.091     -0.011     8.0218     90.913     29.817  27.746055     0.9257      7.124   327.9886 1.1268e+02     2.1351      0.091      0.132    21.5546 0.0000e+00
      0.086     -0.014     7.9940     90.600     29.884  27.808809     0.9419      7.115   327.9912 2.3546e+02     2.0706      0.084      0.122    21.5503 0.0000e+00
      0.080     -0.010     7.9704     90.348     29.882  27.812395     0.9651      7.125   327.6356 3.8742e+02     1.9942      0.076      0.111    21.5396 0.0000e+00
      0.076     -0.004     7.9507     90.142     29.851  27.789422     0.9761      7.145   327.2160 4.0987e+02     1.9438      0.073      0.106    21.5288 0.0000e+00
      0.075      0.001     7.9270     89.881     29.844  27.785043     0.9742      7.167   327.3065 4.7919e+02     1.9492      0.072      0.105    21.5188 0.0000e+00
      0.079      0.005     7.8809     89.358     29.816  27.759457     0.9412      7.189   329.4185 7.6276e+02     2.0289      0.075      0.108    21.5182 0.0000e+00
      0.086      0.008     7.8034     88.478     29.789  27.734051     0.8902      7.205   333.0483 9.1376e+02     2.1453      0.086      0.125    21.5317 0.0000e+00
      0.091      0.010     7.7067     87.385     29.785  27.731855     0.8622      7.210   335.4022 8.8617e+02     2.1978      0.093      0.135    21.5446 0.0000e+00
      0.089      0.013     7.6095     86.282     29.787  27.732902     0.8599      7.207   336.1968 1.0792e+03     2.1741      0.087      0.125    21.5489 0.0000e+00
      0.087      0.013     7.5291     85.368     29.803  27.746716     0.8629      7.204   336.5468 1.1094e+03     2.1333      0.083      0.122    21.5451 0.0000e+00
      0.091      0.010     7.4866     84.885     29.831  27.771882     0.8617      7.210   337.0530 8.0260e+02     2.1320      0.087      0.128    21.5443 0.0000e+00
      0.099      0.003     7.4991     85.024     29.844  27.783197     0.8637      7.226   336.3813 6.2966e+02     2.1588      0.095      0.139    21.5496 0.0000e+00
      0.108     -0.009     7.5667     85.781     29.819  27.756517     0.8594      7.245   334.1894 6.0713e+02     2.1516      0.109      0.157    21.5489 0.0000e+00
      0.108     -0.026     7.6703     86.946     29.765  27.703286     0.8186      7.264   332.1479 5.5858e+02     2.1362      0.112      0.162    21.5437 0.0000e+00
      0.098     -0.048     7.7779     88.159     29.707  27.647557     0.7573      7.283   331.3141 5.9974e+02     2.1257      0.098      0.142    21.5453 0.0000e+00
      0.080     -0.068     7.8544     89.024     29.646  27.590683     0.7338      7.301   332.0231 6.5799e+02     2.1162      0.079      0.115    21.5457 0.0000e+00
      0.056     -0.082     7.8815     89.337     29.641  27.587096     0.7461      7.313   332.6322 6.7846e+02     2.1433      0.057      0.082    21.5378 0.0000e+00
      0.027     -0.085     7.8657     89.172     29.722  27.667691     0.7491      7.318   333.6897 1.1106e+03     2.1793      0.029      0.041    21.5298 0.0000e+00
     -0.004     -0.079     7.8271     88.745     29.795  27.739686     0.7248      7.323   335.0007 1.6844e+03     2.1846     -0.006     -0.008    21.5265 0.0000e+00
     -0.029     -0.065     7.7881     88.299     29.817  27.759117     0.6903      7.329   335.5766 1.7730e+03     2.1774     -0.035     -0.051    21.5267 0.0000e+00
     -0.041     -0.047     7.7643     88.018     29.840  27.775635     0.6821      7.334   336.9534 1.6630e+03     2.1831     -0.042     -0.061    21.5276 0.0000e+00
     -0.046     -0.031     7.7559     87.917     29.881  27.812407     0.6989      7.335   336.5052 1.6565e+03     2.1928     -0.045     -0.066    21.5392 0.0000e+00
     -0.048     -0.023     7.7515     87.875     29.890  27.822727     0.7283      7.339   334.4591 1.6722e+03     2.1732     -0.050     -0.071    21.5494 0.0000e+00
     -0.046     -0.023     7.7390     87.747     29.832  27.773429     0.7703      7.345   332.6916 1.6783e+03     2.1592     -0.046     -0.066    21.5444 0.0000e+00
     -0.045     -0.027     7.7079     87.407     29.774  27.724338     0.8030      7.350   332.7722 1.6830e+03     2.1752     -0.040     -0.059    21.5352 0.0000e+00
     -0.052     -0.026     7.6537     86.807     29.782  27.737162     0.8114      7.340   337.1545 1.6977e+03     2.1844     -0.045     -0.067    21.5290 0.0000e+00
     -0.072     -0.020     7.5840     86.028     29.847  27.801491     0.8351      7.319   340.8506 1.7087e+03     2.1783     -0.069     -0.100    21.5352 0.0000e+00
     -0.092     -0.011     7.5160     85.265     29.914  27.867162     0.8874      7.313   341.7565 1.7097e+03     2.1632     -0.097     -0.141    21.5463 0.0000e+00
     -0.096      0.001     7.4685     84.747     29.938  27.896211     0.9197      7.324   342.0841 1.7083e+03     2.1537     -0.103     -0.150    21.5517 0.0000e+00
     -0.081      0.012     7.4510     84.584     29.927  27.898746     0.9315      7.339   339.8216 1.7093e+03     2.1552     -0.077     -0.113    21.5608 0.0000e+00
     -0.063      0.019     7.4564     84.683     29.911  27.897830     0.9842      7.358   335.2223 1.6574e+03     2.1513     -0.058     -0.083    21.5701 0.0000e+00
     -0.053      0.016     7.4695     84.870     29.882  27.885151     1.0784      7.375   331.6448 1.5873e+03     2.1373     -0.052     -0.076    21.5696 0.0000e+00
     -0.049      0.001     7.4774     84.996     29.853  27.872463     1.1329      7.390   330.1216 1.6202e+03     2.1387     -0.045     -0.066    21.5809 0.0000e+00
     -0.050     -0.020     7.4676     84.909     29.843  27.871430     1.1297      7.398   333.2386 1.6577e+03     2.1373     -0.047     -0.068    21.6079 0.0000e+00
     -0.059     -0.036     7.4327     84.515     29.844  27.872680     1.0577      7.392   339.6493 1.6331e+03     2.1206     -0.056     -0.080    21.6301 0.0000e+00
     -0.074     -0.045     7.3757     83.849     29.867  27.887576     0.9335      7.375   342.6726 1.6412e+03     2.1191     -0.069     -0.099    21.6524 0.0000e+00
     -0.098     -0.046     7.3069     83.036     29.919  27.924532     0.8585      7.366   342.0022 1.6748e+03     2.1193     -0.098     -0.141    21.6794 0.0000e+00
     -0.118     -0.041     7.2395     82.230     29.949  27.938497     0.8498      7.372   338.5137 1.6845e+03     2.1231     -0.122     -0.178    21.6982 0.0000e+00
     -0.125     -0.027     7.1832     81.569     29.949  27.929418     0.8566      7.383   335.7685 1.6740e+03     2.1346     -0.123     -0.179    21.6960 0.0000e+00
     -0.125     -0.008     7.1420     81.107     29.959  27.941746     0.8391      7.387   338.2358 1.6590e+03     2.1370     -0.120     -0.174    21.6846 0.0000e+00
     -0.128      0.009     7.1120     80.787     29.971  27.960552     0.8034      7.385   340.9003 1.6306e+03     2.1524     -0.129     -0.185    21.6660 0.0000e+00
