* Sea-Bird SBE19plus  Data File:
* FileName = C:\DATA\051418_fcr_0001.hex
* Software version 2.6.3.104 SB_Terminal.dll
* Temperature SN = 7809
* Conductivity SN = 7809
* System UpLoad Time = May 14 2018 15:30:42
* <ApplicationData>
* <Seaterm232>
* <SoftwareVersion>2.6.3.104</SoftwareVersion>
* <BuildDate>30-Jun-2017</BuildDate>
* </Seaterm232>
* </ApplicationData>
* cast   1 14 May 2018 13:41:17 samples 1 to 1107, avg = 1, stop = mag switch
# nquan = 15
# nvalues = 1005                        
# units = specified
# name 0 = depFM: Depth [fresh water, m]
# name 1 = dz/dtM: Descent Rate [m/s]
# name 2 = sbeox0Mg/L: Oxygen, SBE 43 [mg/l]
# name 3 = sbeox0PS: Oxygen, SBE 43 [% saturation]
# name 4 = specc: Specific Conductance [uS/cm]
# name 5 = c0uS/cm: Conductivity [uS/cm]
# name 6 = flECO-AFL: Fluorescence, WET Labs ECO-AFL/FL [mg/m^3]
# name 7 = ph: pH
# name 8 = orp: Oxidation Reduction Potential [mV]
# name 9 = par/sat/log: PAR/Logarithmic, Satlantic
# name 10 = turbWETntu0: Turbidity, WET Labs ECO [NTU]
# name 11 = prdM: Pressure, Strain Gauge [db]
# name 12 = prdE: Pressure, Strain Gauge [psi]
# name 13 = tv290C: Temperature [ITS-90, deg C]
# name 14 = flag:  0.000e+00
# span 0 =     -0.548,      9.627       
# span 1 =     -0.194,      3.010       
# span 2 =     4.9735,     9.8729       
# span 3 =     59.201,    102.508       
# span 4 =      0.633,     39.637       
# span 5 =   0.651551,  36.244664       
# span 6 =    -0.6818,     4.4154       
# span 7 =      5.689,      7.487       
# span 8 =   328.2834,  1240.2295       
# span 9 = 1.8214e+00, 1.7117e+03       
# span 10 =    -0.6722,   371.5655      
# span 11 =     -0.538,      9.441      
# span 12 =     -0.780,     13.693      
# span 13 =     9.3216,    26.4835      
# span 14 = 0.0000e+00, 0.0000e+00      
# interval = seconds: 0.25
# start_time = May 14 2018 13:41:17 [Instrument's time stamp, header]
# bad_flag = -9.990e-29
# <Sensors count="9" >
#   <sensor Channel="1" >
#     <!-- Count, Temperature -->
#     <TemperatureSensor SensorID="58" >
#       <SerialNumber>7809</SerialNumber>
#       <CalibrationDate>09-Mar-18</CalibrationDate>
#       <A0>1.21093245e-003</A0>
#       <A1>2.84356597e-004</A1>
#       <A2>-1.94507398e-006</A2>
#       <A3>2.12806664e-007</A3>
#       <Slope>1.00000000</Slope>
#       <Offset>0.0000</Offset>
#     </TemperatureSensor>
#   </sensor>
#   <sensor Channel="2" >
#     <!-- Frequency 0, Conductivity -->
#     <ConductivitySensor SensorID="3" >
#       <SerialNumber>7809</SerialNumber>
#       <CalibrationDate>09-Mar-18</CalibrationDate>
#       <UseG_J>1</UseG_J>
#       <!-- Cell const and series R are applicable only for wide range sensors. -->
#       <SeriesR>0.0000</SeriesR>
#       <CellConst>2000.0000</CellConst>
#       <ConductivityType>0</ConductivityType>
#       <Coefficients equation="0" >
#         <A>0.00000000e+000</A>
#         <B>0.00000000e+000</B>
#         <C>0.00000000e+000</C>
#         <D>0.00000000e+000</D>
#         <M>0.0</M>
#         <CPcor>-9.57000000e-008</CPcor>
#       </Coefficients>
#       <Coefficients equation="1" >
#         <G>-1.00672082e+000</G>
#         <H>1.26906489e-001</H>
#         <I>-1.40584351e-004</I>
#         <J>2.47837121e-005</J>
#         <CPcor>-9.57000000e-008</CPcor>
#         <CTcor>3.2500e-006</CTcor>
#         <!-- WBOTC not applicable unless ConductivityType = 1. -->
#         <WBOTC>0.00000000e+000</WBOTC>
#       </Coefficients>
#       <Slope>1.00000000</Slope>
#       <Offset>0.00000</Offset>
#     </ConductivitySensor>
#   </sensor>
#   <sensor Channel="3" >
#     <!-- Count, Pressure, Strain Gauge -->
#     <PressureSensor SensorID="46" >
#       <SerialNumber>7809</SerialNumber>
#       <CalibrationDate>07-Mar-18</CalibrationDate>
#       <PA0>-4.08176359e-002</PA0>
#       <PA1>4.85188419e-004</PA1>
#       <PA2>-3.51168169e-012</PA2>
#       <PTEMPA0>-5.37806900e+001</PTEMPA0>
#       <PTEMPA1>5.36620721e+001</PTEMPA1>
#       <PTEMPA2>4.87214332e-002</PTEMPA2>
#       <PTCA0>5.25213435e+005</PTCA0>
#       <PTCA1>1.79532409e+000</PTCA1>
#       <PTCA2>-2.84353509e-001</PTCA2>
#       <PTCB0>2.51668750e+001</PTCB0>
#       <PTCB1>3.75000000e-004</PTCB1>
#       <PTCB2>0.00000000e+000</PTCB2>
#       <Offset>0.000000</Offset>
#     </PressureSensor>
#   </sensor>
#   <sensor Channel="4" >
#     <!-- A/D voltage 0, pH -->
#     <pH_Sensor SensorID="43" >
#       <SerialNumber>0363</SerialNumber>
#       <CalibrationDate>16-Mar-18</CalibrationDate>
#       <Slope>4.6194</Slope>
#       <Offset>2.5947</Offset>
#     </pH_Sensor>
#   </sensor>
#   <sensor Channel="5" >
#     <!-- A/D voltage 1, Oxidation Reduction Potential -->
#     <OxidationReductionPotentialSensor SensorID="41" >
#       <SerialNumber>0363</SerialNumber>
#       <CalibrationDate>16-Mar-18</CalibrationDate>
#       <B>2.499480</B>
#       <M>-0.496195</M>
#       <Offset>0.0</Offset>
#     </OxidationReductionPotentialSensor>
#   </sensor>
#   <sensor Channel="6" >
#     <!-- A/D voltage 2, Oxygen, SBE 43 -->
#     <OxygenSensor SensorID="38" >
#       <SerialNumber>0434</SerialNumber>
#       <CalibrationDate>13-Mar-18</CalibrationDate>
#       <Use2007Equation>1</Use2007Equation>
#       <CalibrationCoefficients equation="0" >
#         <!-- Coefficients for Owens-Millard equation. -->
#         <Boc>0.0000</Boc>
#         <Soc>0.0000e+000</Soc>
#         <offset>0.0000</offset>
#         <Pcor>0.00e+000</Pcor>
#         <Tcor>0.0000</Tcor>
#         <Tau>0.0</Tau>
#       </CalibrationCoefficients>
#       <CalibrationCoefficients equation="1" >
#         <!-- Coefficients for Sea-Bird equation - SBE calibration in 2007 and later. -->
#         <Soc>4.5718e-001</Soc>
#         <offset>-0.6113</offset>
#         <A>-4.0649e-003</A>
#         <B> 2.0945e-004</B>
#         <C>-3.3182e-006</C>
#         <D0> 2.5826e+000</D0>
#         <D1> 1.92634e-004</D1>
#         <D2>-4.64803e-002</D2>
#         <E> 3.6000e-002</E>
#         <Tau20> 1.2200</Tau20>
#         <H1>-3.3000e-002</H1>
#         <H2> 5.0000e+003</H2>
#         <H3> 1.4500e+003</H3>
#       </CalibrationCoefficients>
#     </OxygenSensor>
#   </sensor>
#   <sensor Channel="7" >
#     <!-- A/D voltage 3, PAR/Logarithmic, Satlantic -->
#     <PARLog_SatlanticSensor SensorID="76" >
#       <SerialNumber>1122</SerialNumber>
#       <CalibrationDate>22-Jun-2017</CalibrationDate>
#       <a0>9.6090e-001</a0>
#       <a1>8.0780e-001</a1>
#       <Im>1.3589e+000</Im>
#       <Multiplier>1.0000e+000</Multiplier>
#     </PARLog_SatlanticSensor>
#   </sensor>
#   <sensor Channel="8" >
#     <!-- A/D voltage 4, Fluorometer, WET Labs ECO-AFL/FL -->
#     <FluoroWetlabECO_AFL_FL_Sensor SensorID="20" >
#       <SerialNumber>FLNTURT-2496</SerialNumber>
#       <CalibrationDate>25-Jan-2017</CalibrationDate>
#       <ScaleFactor>5.30000000e+001</ScaleFactor>
#       <!-- Dark output -->
#       <Vblank>0.0560</Vblank>
#     </FluoroWetlabECO_AFL_FL_Sensor>
#   </sensor>
#   <sensor Channel="9" >
#     <!-- A/D voltage 5, Turbidity Meter, WET Labs, ECO-NTU -->
#     <TurbidityMeter SensorID="67" >
#       <SerialNumber>FLNTURT-2496</SerialNumber>
#       <CalibrationDate>25-Jan-2017</CalibrationDate>
#       <ScaleFactor>176.000000</ScaleFactor>
#       <!-- Dark output -->
#       <DarkVoltage>0.072000</DarkVoltage>
#     </TurbidityMeter>
#   </sensor>
# </Sensors>
# datcnv_date = May 14 2018 15:34:58, 7.26.7.114 [datcnv_vars = 14]
# datcnv_in = C:\DATA\051418_fcr50.hex C:\DATA\SBE19plusV2_7809.xmlcon
# datcnv_skipover = 0
# datcnv_ox_hysteresis_correction = yes
# datcnv_ox_tau_correction = yes
# filter_date = May 14 2018 15:35:17, 7.26.7.114
# filter_in = C:\DATA\051418_fcr50.cnv
# filter_low_pass_tc_A = 0.030
# filter_low_pass_tc_B = 0.150
# filter_low_pass_A_vars = prdM prdE tv290C
# filter_low_pass_B_vars = depFM dz/dtM sbeox0Mg/L sbeox0PS specc c0uS/cm flECO-AFL ph orp par/sat/log turbWETntu0
# alignctd_date = May 14 2018 15:35:43, 7.26.7.114
# alignctd_in = C:\DATA\051418_fcr50.cnv
# alignctd_adv = dz/dtM 1.000, sbeox0Mg/L 1.000, sbeox0PS 1.000, specc 1.000, c0uS/cm 1.000, flECO-AFL 1.000, ph 1.000, orp 1.000, turbWETntu0 1.000                                                                                 
# file_type = ascii
*END*
     -0.548 6.0420e-22     7.9247     98.513      0.671   0.690637    -0.1756      5.689  1240.2295 2.0296e+02     0.0293     -0.537     -0.779    26.4671 0.0000e+00
     -0.548 6.6462e-21     7.9251     98.519      0.658   0.676906    -0.1774      5.741  1240.2295 2.5832e+02     0.0097     -0.538     -0.780    26.4677 0.0000e+00
     -0.548 7.3108e-20     7.9247     98.515      0.644   0.663185    -0.1748      5.778  1240.2295 4.3247e+02    -0.0494     -0.537     -0.779    26.4680 0.0000e+00
     -0.548 8.0419e-19     7.9246     98.514      0.633   0.651551    -0.1717      5.801  1240.2295 6.4727e+02    -0.1660     -0.537     -0.779    26.4681 0.0000e+00
     -0.548 8.8461e-18     7.9237     98.504      0.644   0.663071    -0.1766      5.823  1240.2295 7.3918e+02    -0.2412     -0.537     -0.779    26.4687 0.0000e+00
     -0.548 9.7307e-17     7.9227     98.489      0.656   0.675648    -0.1793      5.854  1240.2295 6.2707e+02    -0.2263     -0.537     -0.779    26.4693 0.0000e+00
     -0.548 1.0704e-15     7.9230     98.493      0.657   0.676802    -0.1760      5.880  1240.2295 4.0302e+02    -0.1995     -0.537     -0.779    26.4699 0.0000e+00
     -0.548 1.1774e-14     7.9235     98.501      0.657   0.677020    -0.1740      5.886  1240.2295 2.6657e+02    -0.1917     -0.537     -0.779    26.4701 0.0000e+00
     -0.548 1.2952e-13     7.9235     98.501      0.658   0.678288    -0.1730      5.879  1240.2295 2.1173e+02    -0.1931     -0.537     -0.779    26.4697 0.0000e+00
     -0.548 1.4247e-12     7.9236     98.503      0.672   0.692124    -0.1644      5.872  1240.2295 1.6148e+02    -0.2157     -0.538     -0.780    26.4694 0.0000e+00
     -0.548 1.5671e-11     7.9243     98.512      0.697   0.717494    -0.1521      5.866  1240.2295 1.3202e+02    -0.2214     -0.537     -0.779    26.4697 0.0000e+00
     -0.548 1.7239e-10     7.9251     98.522      0.711   0.731381    -0.1534      5.863  1240.2295 1.2616e+02    -0.2009     -0.537     -0.778    26.4698 0.0000e+00
     -0.547 1.8962e-09     7.9253     98.526      0.713   0.733211    -0.1622      5.864  1240.2295 1.5200e+02    -0.1813     -0.537     -0.779    26.4700 0.0000e+00
     -0.547 2.0859e-08     7.9246     98.519      0.719   0.739626    -0.1666      5.865  1240.2295 3.8684e+02    -0.1680     -0.537     -0.778    26.4704 0.0000e+00
     -0.547 2.2945e-07     7.9237     98.509      0.724   0.745534    -0.1692      5.867  1240.2294 6.4572e+02    -0.1613     -0.536     -0.778    26.4709 0.0000e+00
     -0.547      0.000     7.9237     98.512      0.720   0.741233    -0.1664      5.866  1240.2281 4.8958e+02    -0.1623     -0.536     -0.778    26.4712 0.0000e+00
     -0.547      0.000     7.9240     98.518      0.730   0.751032    -0.1605      5.851  1240.2139 2.2161e+02    -0.1799     -0.536     -0.777    26.4721 0.0000e+00
     -0.547      0.000     7.9244     98.523      0.901   0.927426    -0.1618      5.844  1240.0583 1.5341e+02    -0.1910     -0.537     -0.778    26.4718 0.0000e+00
     -0.547      0.003     7.9259     98.523      2.796   2.873991    -0.1729      6.026  1238.3458 1.5542e+02    -0.1738     -0.536     -0.778    26.4741 0.0000e+00
     -0.547      0.014     7.9403     98.517      8.603   8.811800    -0.3040      6.366  1219.5087 1.7036e+02    -0.2776     -0.537     -0.778    26.4736 0.0000e+00
     -0.547      0.036     7.9868     98.526     18.170  18.485180    -0.5520      6.585  1012.3012 2.1384e+02    -0.5309     -0.536     -0.778    26.4779 0.0000e+00
     -0.546      0.066     8.0576     98.536     27.881  28.139409    -0.6818      6.764   628.3759 4.7571e+02    -0.6722     -0.537     -0.779    26.4747 0.0000e+00
     -0.536      0.099     8.1245     98.522     33.440  33.494949    -0.6788      7.018   412.0119 9.9158e+02    -0.6430     -0.536     -0.777    26.4835 0.0000e+00
     -0.501      0.131     8.1770     98.502     34.968  34.790426    -0.6525      7.224   386.1793 1.1187e+03    -0.3300     -0.501     -0.726    26.4605 0.0000e+00
     -0.447      0.159     8.2200     98.500     35.225  34.847256    -0.4283      7.338   380.7377 9.6497e+02     2.9588     -0.436     -0.632    26.1199 0.0000e+00
     -0.393      0.179     8.2574     98.515     35.362  34.816976    -0.0175      7.368   377.4497 1.2555e+03     9.0008     -0.382     -0.555    25.5376 0.0000e+00
     -0.345      0.189     8.2917     98.579     35.485  34.805193     0.2060      7.330   375.5057 1.5589e+03    12.2978     -0.341     -0.495    25.0640 0.0000e+00
     -0.297      0.188     8.3273     98.753     35.610  34.831624     0.2344      7.271   374.1837 1.5198e+03    12.3343     -0.292     -0.423    24.7211 0.0000e+00
     -0.248      0.180     8.3660     99.056     35.723  34.882341     0.3434      7.216   373.0795 1.2669e+03     9.3207     -0.243     -0.350    24.4441 0.0000e+00
     -0.203      0.167     8.4068     99.452     35.786  34.910158     0.5410      7.167   371.6193 8.2557e+02     3.7532     -0.199     -0.289    24.2087 0.0000e+00
     -0.160      0.152     8.4475     99.888     35.808  34.913833     0.6477      7.137   369.7790 4.8374e+02     0.7142     -0.157     -0.227    24.0161 0.0000e+00
     -0.118      0.135     8.4854    100.307     35.832  34.926758     0.6600      7.113   369.0690 5.3076e+02     0.4388     -0.113     -0.163    23.8845 0.0000e+00
     -0.084      0.116     8.5169    100.661     35.852  34.939368     0.6617      7.083   369.1435 9.4621e+02     0.3623     -0.077     -0.111    23.8039 0.0000e+00
     -0.063      0.096     8.5428    100.956     35.857  34.939256     0.6596      7.058   369.0455 1.4050e+03     0.2473     -0.061     -0.088    23.7635 0.0000e+00
     -0.045      0.076     8.5606    101.151     35.848  34.925399     0.6618      7.047   369.2601 1.6350e+03     0.1771     -0.046     -0.066    23.7447 0.0000e+00
     -0.026      0.058     8.5432    100.928     35.828  34.898857     0.6700      7.043   369.4152 1.6886e+03     0.1551     -0.022     -0.033    23.7282 0.0000e+00
     -0.012      0.043     8.4620     99.954     35.807  34.872402     0.6940      7.043   368.2546 1.7013e+03     0.1644     -0.009     -0.014    23.7189 0.0000e+00
     -0.005      0.030     8.3323     98.416     35.796  34.859602     0.7222      7.050   366.5844 1.7082e+03     0.1983     -0.003     -0.005    23.7170 0.0000e+00
      0.000      0.019     8.1820     96.641     35.807  34.871141     0.7263      7.064   365.6535 1.7110e+03     0.1982      0.001      0.001    23.7081 0.0000e+00
      0.002      0.009     8.0154     94.672     35.822  34.884877     0.7249      7.084   365.1730 1.7117e+03     0.1938      0.003      0.006    23.6965 0.0000e+00
      0.002      0.003     7.8249     92.416     35.839  34.898642     0.7329      7.105   365.5067 1.7097e+03     0.2977      0.004      0.005    23.6881 0.0000e+00
      0.001      0.000     7.6174     89.955     35.856  34.910526     0.7322      7.123   366.4199 1.7062e+03     0.4475      0.001      0.001    23.6851 0.0000e+00
     -0.001     -0.001     7.4279     87.707     35.851  34.901515     0.7247      7.139   366.2336 1.7032e+03     0.4792     -0.001     -0.002    23.6875 0.0000e+00
     -0.001      0.002     7.2894     86.066     35.869  34.916729     0.7256      7.149   365.0604 1.6999e+03     0.4359     -0.001     -0.002    23.6882 0.0000e+00
     -0.001      0.008     7.2008     85.020     35.921  34.967431     0.7326      7.145   363.9360 1.6956e+03     0.4123     -0.000     -0.001    23.6833 0.0000e+00
     -0.000      0.014     7.1361     84.264     35.957  35.006393     0.7461      7.136   363.0495 1.6902e+03     0.4082     -0.001     -0.001    23.6755 0.0000e+00
      0.003      0.019     7.0791     83.597     35.955  35.006698     0.7694      7.137   363.1178 1.6724e+03     0.4165     -0.000     -0.000    23.6698 0.0000e+00
      0.012      0.019     7.0294     83.010     35.918  34.971126     0.7749      7.150   363.8156 1.5333e+03     0.4218      0.011      0.015    23.6654 0.0000e+00
      0.023      0.014     6.9911     82.559     35.903  34.957414     0.7661      7.178   363.1414 1.1922e+03     0.4103      0.026      0.038    23.6655 0.0000e+00
      0.030     -0.001     6.9573     82.164     35.912  34.967944     0.7559      7.220   361.2461 7.6853e+02     0.3690      0.031      0.046    23.6733 0.0000e+00
      0.032     -0.023     6.9144     81.665     35.912  34.971410     0.7336      7.259   359.9149 4.3332e+02     0.2892      0.032      0.045    23.6771 0.0000e+00
      0.029     -0.044     6.8629     81.063     35.938  34.999330     0.7176      7.285   359.2632 2.7419e+02     0.2086      0.033      0.047    23.6765 0.0000e+00
      0.013     -0.058     6.8106     80.452     35.989  35.051450     0.7177      7.308   358.7015 2.4428e+02     0.1574      0.023      0.034    23.6756 0.0000e+00
     -0.022     -0.063     6.7636     79.906     36.027  35.093432     0.7355      7.324   358.3716 2.4118e+02     0.1585     -0.022     -0.033    23.6793 0.0000e+00
     -0.055     -0.059     6.7248     79.460     36.053  35.125821     0.7676      7.330   358.4572 2.3452e+02     0.1906     -0.064     -0.092    23.6853 0.0000e+00
     -0.068     -0.049     6.6986     79.164     36.112  35.188990     0.7843      7.331   358.7039 2.3731e+02     0.2106     -0.070     -0.099    23.6881 0.0000e+00
     -0.070     -0.033     6.6923     79.097     36.207  35.285525     0.7805      7.337   358.8604 2.4996e+02     0.2168     -0.068     -0.098    23.6914 0.0000e+00
     -0.069     -0.015     6.7071     79.275     36.327  35.403731     0.7950      7.347   358.1988 2.6934e+02     0.2050     -0.068     -0.099    23.6974 0.0000e+00
     -0.069     -0.004     6.7323     79.574     36.465  35.538353     0.8316      7.357   356.8988 2.9279e+02     0.1891     -0.068     -0.098    23.7081 0.0000e+00
     -0.069     -0.000     6.7572     79.869     36.571  35.642805     0.8554      7.365   356.3057 3.1394e+02     0.2086     -0.068     -0.098    23.7179 0.0000e+00
     -0.069 1.2015e-09     6.7744     80.075     36.643  35.713822     0.8622      7.373   356.5341 3.4420e+02     0.2270     -0.067     -0.098    23.7227 0.0000e+00
     -0.069 1.3216e-08     6.7755     80.090     36.691  35.761793     0.8673      7.381   357.0801 3.9005e+02     0.1972     -0.068     -0.098    23.7239 0.0000e+00
     -0.069 1.4538e-07     6.7550     79.850     36.707  35.778169     0.8723      7.386   357.3143 4.6494e+02     0.1840     -0.068     -0.098    23.7237 0.0000e+00
     -0.069 1.4538e-07     6.7121     79.344     36.713  35.784780     0.8761      7.389   356.4397 5.7478e+02     0.2204     -0.067     -0.097    23.7242 0.0000e+00
     -0.069 1.3217e-08     6.6598     78.725     36.707  35.778201     0.8762      7.392   354.9372 7.1539e+02     0.2413     -0.067     -0.097    23.7257 0.0000e+00
     -0.069 1.2015e-09     6.6182     78.232     36.692  35.762151     0.8638      7.396   354.1185 8.7884e+02     0.2227     -0.067     -0.097    23.7279 0.0000e+00
     -0.069 1.0923e-10     6.5962     77.968     36.713  35.781283     0.8369      7.399   353.9409 1.0298e+03     0.2701     -0.068     -0.098    23.7297 0.0000e+00
     -0.069 9.9300e-12     6.5945     77.945     36.753  35.818949     0.8094      7.402   354.0801 1.1478e+03     0.3873     -0.068     -0.098    23.7304 0.0000e+00
