* Sea-Bird SBE19plus  Data File:
* FileName = C:\DATA\051418_fcr_0006.hex
* Software version 2.6.3.104 SB_Terminal.dll
* Temperature SN = 7809
* Conductivity SN = 7809
* System UpLoad Time = May 14 2018 15:32:34
* <ApplicationData>
* <Seaterm232>
* <SoftwareVersion>2.6.3.104</SoftwareVersion>
* <BuildDate>30-Jun-2017</BuildDate>
* </Seaterm232>
* </ApplicationData>
* cast   6 14 May 2018 17:35:25 samples 4199 to 5177, avg = 1, stop = mag switch
# nquan = 15
# nvalues = 845                         
# units = specified
# name 0 = depFM: Depth [fresh water, m]
# name 1 = dz/dtM: Descent Rate [m/s]
# name 2 = sbeox0Mg/L: Oxygen, SBE 43 [mg/l]
# name 3 = sbeox0PS: Oxygen, SBE 43 [% saturation]
# name 4 = specc: Specific Conductance [uS/cm]
# name 5 = c0uS/cm: Conductivity [uS/cm]
# name 6 = flECO-AFL: Fluorescence, WET Labs ECO-AFL/FL [mg/m^3]
# name 7 = ph: pH
# name 8 = orp: Oxidation Reduction Potential [mV]
# name 9 = par/sat/log: PAR/Logarithmic, Satlantic
# name 10 = turbWETntu0: Turbidity, WET Labs ECO [NTU]
# name 11 = prdM: Pressure, Strain Gauge [db]
# name 12 = prdE: Pressure, Strain Gauge [psi]
# name 13 = tv290C: Temperature [ITS-90, deg C]
# name 14 = flag:  0.000e+00
# span 0 =     -0.117,      9.469       
# span 1 =     -0.211,      0.143       
# span 2 =     4.9133,    10.2636       
# span 3 =     60.083,    108.969       
# span 4 =     34.192,     39.612       
# span 5 =  27.065244,  37.105651       
# span 6 =     0.2925,     3.2998       
# span 7 =      6.458,      7.520       
# span 8 =   279.4107,   354.7086       
# span 9 = 5.9941e+00, 2.5697e+03       
# span 10 =    -0.4162,     1.2584      
# span 11 =     -0.116,      9.288      
# span 12 =     -0.168,     13.471      
# span 13 =     9.3292,    25.7825      
# span 14 = 0.0000e+00, 0.0000e+00      
# interval = seconds: 0.25
# start_time = May 14 2018 17:35:25 [Instrument's time stamp, header]
# bad_flag = -9.990e-29
# <Sensors count="9" >
#   <sensor Channel="1" >
#     <!-- Count, Temperature -->
#     <TemperatureSensor SensorID="58" >
#       <SerialNumber>7809</SerialNumber>
#       <CalibrationDate>09-Mar-18</CalibrationDate>
#       <A0>1.21093245e-003</A0>
#       <A1>2.84356597e-004</A1>
#       <A2>-1.94507398e-006</A2>
#       <A3>2.12806664e-007</A3>
#       <Slope>1.00000000</Slope>
#       <Offset>0.0000</Offset>
#     </TemperatureSensor>
#   </sensor>
#   <sensor Channel="2" >
#     <!-- Frequency 0, Conductivity -->
#     <ConductivitySensor SensorID="3" >
#       <SerialNumber>7809</SerialNumber>
#       <CalibrationDate>09-Mar-18</CalibrationDate>
#       <UseG_J>1</UseG_J>
#       <!-- Cell const and series R are applicable only for wide range sensors. -->
#       <SeriesR>0.0000</SeriesR>
#       <CellConst>2000.0000</CellConst>
#       <ConductivityType>0</ConductivityType>
#       <Coefficients equation="0" >
#         <A>0.00000000e+000</A>
#         <B>0.00000000e+000</B>
#         <C>0.00000000e+000</C>
#         <D>0.00000000e+000</D>
#         <M>0.0</M>
#         <CPcor>-9.57000000e-008</CPcor>
#       </Coefficients>
#       <Coefficients equation="1" >
#         <G>-1.00672082e+000</G>
#         <H>1.26906489e-001</H>
#         <I>-1.40584351e-004</I>
#         <J>2.47837121e-005</J>
#         <CPcor>-9.57000000e-008</CPcor>
#         <CTcor>3.2500e-006</CTcor>
#         <!-- WBOTC not applicable unless ConductivityType = 1. -->
#         <WBOTC>0.00000000e+000</WBOTC>
#       </Coefficients>
#       <Slope>1.00000000</Slope>
#       <Offset>0.00000</Offset>
#     </ConductivitySensor>
#   </sensor>
#   <sensor Channel="3" >
#     <!-- Count, Pressure, Strain Gauge -->
#     <PressureSensor SensorID="46" >
#       <SerialNumber>7809</SerialNumber>
#       <CalibrationDate>07-Mar-18</CalibrationDate>
#       <PA0>-4.08176359e-002</PA0>
#       <PA1>4.85188419e-004</PA1>
#       <PA2>-3.51168169e-012</PA2>
#       <PTEMPA0>-5.37806900e+001</PTEMPA0>
#       <PTEMPA1>5.36620721e+001</PTEMPA1>
#       <PTEMPA2>4.87214332e-002</PTEMPA2>
#       <PTCA0>5.25213435e+005</PTCA0>
#       <PTCA1>1.79532409e+000</PTCA1>
#       <PTCA2>-2.84353509e-001</PTCA2>
#       <PTCB0>2.51668750e+001</PTCB0>
#       <PTCB1>3.75000000e-004</PTCB1>
#       <PTCB2>0.00000000e+000</PTCB2>
#       <Offset>0.000000</Offset>
#     </PressureSensor>
#   </sensor>
#   <sensor Channel="4" >
#     <!-- A/D voltage 0, pH -->
#     <pH_Sensor SensorID="43" >
#       <SerialNumber>0363</SerialNumber>
#       <CalibrationDate>16-Mar-18</CalibrationDate>
#       <Slope>4.6194</Slope>
#       <Offset>2.5947</Offset>
#     </pH_Sensor>
#   </sensor>
#   <sensor Channel="5" >
#     <!-- A/D voltage 1, Oxidation Reduction Potential -->
#     <OxidationReductionPotentialSensor SensorID="41" >
#       <SerialNumber>0363</SerialNumber>
#       <CalibrationDate>16-Mar-18</CalibrationDate>
#       <B>2.499480</B>
#       <M>-0.496195</M>
#       <Offset>0.0</Offset>
#     </OxidationReductionPotentialSensor>
#   </sensor>
#   <sensor Channel="6" >
#     <!-- A/D voltage 2, Oxygen, SBE 43 -->
#     <OxygenSensor SensorID="38" >
#       <SerialNumber>0434</SerialNumber>
#       <CalibrationDate>13-Mar-18</CalibrationDate>
#       <Use2007Equation>1</Use2007Equation>
#       <CalibrationCoefficients equation="0" >
#         <!-- Coefficients for Owens-Millard equation. -->
#         <Boc>0.0000</Boc>
#         <Soc>0.0000e+000</Soc>
#         <offset>0.0000</offset>
#         <Pcor>0.00e+000</Pcor>
#         <Tcor>0.0000</Tcor>
#         <Tau>0.0</Tau>
#       </CalibrationCoefficients>
#       <CalibrationCoefficients equation="1" >
#         <!-- Coefficients for Sea-Bird equation - SBE calibration in 2007 and later. -->
#         <Soc>4.5718e-001</Soc>
#         <offset>-0.6113</offset>
#         <A>-4.0649e-003</A>
#         <B> 2.0945e-004</B>
#         <C>-3.3182e-006</C>
#         <D0> 2.5826e+000</D0>
#         <D1> 1.92634e-004</D1>
#         <D2>-4.64803e-002</D2>
#         <E> 3.6000e-002</E>
#         <Tau20> 1.2200</Tau20>
#         <H1>-3.3000e-002</H1>
#         <H2> 5.0000e+003</H2>
#         <H3> 1.4500e+003</H3>
#       </CalibrationCoefficients>
#     </OxygenSensor>
#   </sensor>
#   <sensor Channel="7" >
#     <!-- A/D voltage 3, PAR/Logarithmic, Satlantic -->
#     <PARLog_SatlanticSensor SensorID="76" >
#       <SerialNumber>1122</SerialNumber>
#       <CalibrationDate>22-Jun-2017</CalibrationDate>
#       <a0>9.6090e-001</a0>
#       <a1>8.0780e-001</a1>
#       <Im>1.3589e+000</Im>
#       <Multiplier>1.0000e+000</Multiplier>
#     </PARLog_SatlanticSensor>
#   </sensor>
#   <sensor Channel="8" >
#     <!-- A/D voltage 4, Fluorometer, WET Labs ECO-AFL/FL -->
#     <FluoroWetlabECO_AFL_FL_Sensor SensorID="20" >
#       <SerialNumber>FLNTURT-2496</SerialNumber>
#       <CalibrationDate>25-Jan-2017</CalibrationDate>
#       <ScaleFactor>5.30000000e+001</ScaleFactor>
#       <!-- Dark output -->
#       <Vblank>0.0560</Vblank>
#     </FluoroWetlabECO_AFL_FL_Sensor>
#   </sensor>
#   <sensor Channel="9" >
#     <!-- A/D voltage 5, Turbidity Meter, WET Labs, ECO-NTU -->
#     <TurbidityMeter SensorID="67" >
#       <SerialNumber>FLNTURT-2496</SerialNumber>
#       <CalibrationDate>25-Jan-2017</CalibrationDate>
#       <ScaleFactor>176.000000</ScaleFactor>
#       <!-- Dark output -->
#       <DarkVoltage>0.072000</DarkVoltage>
#     </TurbidityMeter>
#   </sensor>
# </Sensors>
# datcnv_date = May 14 2018 15:34:58, 7.26.7.114 [datcnv_vars = 14]
# datcnv_in = C:\DATA\051418_fcr49.hex C:\DATA\SBE19plusV2_7809.xmlcon
# datcnv_skipover = 0
# datcnv_ox_hysteresis_correction = yes
# datcnv_ox_tau_correction = yes
# filter_date = May 14 2018 15:35:17, 7.26.7.114
# filter_in = C:\DATA\051418_fcr49.cnv
# filter_low_pass_tc_A = 0.030
# filter_low_pass_tc_B = 0.150
# filter_low_pass_A_vars = prdM prdE tv290C
# filter_low_pass_B_vars = depFM dz/dtM sbeox0Mg/L sbeox0PS specc c0uS/cm flECO-AFL ph orp par/sat/log turbWETntu0
# alignctd_date = May 14 2018 15:35:42, 7.26.7.114
# alignctd_in = C:\DATA\051418_fcr49.cnv
# alignctd_adv = dz/dtM 1.000, sbeox0Mg/L 1.000, sbeox0PS 1.000, specc 1.000, c0uS/cm 1.000, flECO-AFL 1.000, ph 1.000, orp 1.000, turbWETntu0 1.000                                                                                 
# file_type = ascii
*END*
      0.015      0.093     8.3106    101.961     36.412  36.955532     0.6657      7.207   279.6889 2.5226e+02     0.2615     -0.000      0.001    25.7632 0.0000e+00
      0.056      0.118     8.3571    102.510     36.280  36.813903     0.6674      7.228   279.6854 2.4913e+02     0.2380      0.055      0.080    25.7825 0.0000e+00
      0.101      0.136     8.4047    103.069     36.157  36.678890     0.6702      7.246   279.4107 2.4753e+02     0.2364      0.104      0.151    25.7728 0.0000e+00
      0.139      0.143     8.4527    103.578     36.040  36.530072     0.6724      7.252   279.5503 2.4064e+02     0.2417      0.134      0.194    25.7516 0.0000e+00
      0.178      0.136     8.4907    103.828     35.878  36.284994     0.6757      7.247   279.9967 2.2509e+02     0.2415      0.174      0.253    25.7398 0.0000e+00
      0.218      0.121     8.4742    103.259     35.737  36.002408     0.6827      7.239   280.4208 2.1073e+02     0.2339      0.217      0.315    25.7285 0.0000e+00
      0.248      0.105     8.3762    101.644     35.678  35.781115     0.6839      7.239   280.8923 2.0660e+02     0.2105      0.247      0.359    25.7216 0.0000e+00
      0.268      0.092     8.2407     99.624     35.685  35.641830     0.6530      7.247   280.9650 2.1521e+02     0.2333      0.264      0.383    25.7017 0.0000e+00
      0.284      0.081     8.1026     97.649     35.753  35.588540     0.5937      7.262   280.6118 2.4923e+02     0.3266      0.279      0.403    25.5969 0.0000e+00
      0.299      0.071     7.9643     95.741     35.843  35.581269     0.5547      7.281   280.6650 4.3267e+02     0.3930      0.293      0.425    25.3738 0.0000e+00
      0.316      0.063     7.8265     93.904     35.891  35.553775     0.5392      7.300   281.0050 8.1062e+02     0.3946      0.308      0.447    25.1253 0.0000e+00
      0.336      0.054     7.6889     92.119     35.902  35.510094     0.5173      7.315   281.5408 1.0311e+03     0.3460      0.329      0.478    24.9214 0.0000e+00
      0.354      0.043     7.5594     90.469     35.996  35.561211     0.4925      7.329   282.0663 1.0370e+03     0.2633      0.351      0.509    24.7541 0.0000e+00
      0.365      0.026     7.4591     89.194     36.261  35.790639     0.4879      7.347   281.8520 1.1897e+03     0.2186      0.362      0.524    24.6184 0.0000e+00
      0.369      0.001     7.3940     88.355     36.497  35.997241     0.4975      7.370   281.3593 1.2195e+03     0.2335      0.365      0.528    24.5153 0.0000e+00
      0.368     -0.033     7.3442     87.712     36.484  35.962946     0.5265      7.390   281.0988 1.1282e+03     0.2909      0.360      0.523    24.4416 0.0000e+00
      0.363     -0.074     7.2957     87.102     36.418  35.884135     0.5813      7.404   281.0266 1.2825e+03     0.3624      0.359      0.520    24.3864 0.0000e+00
      0.347     -0.119     7.2453     86.489     36.410  35.870122     0.6187      7.414   281.2608 1.2749e+03     0.4263      0.349      0.507    24.3420 0.0000e+00
      0.309     -0.161     7.1918     85.842     36.335  35.793511     0.6284      7.423   281.8653 1.1398e+03     0.4535      0.309      0.448    24.3079 0.0000e+00
      0.253     -0.193     7.1396     85.210     36.329  35.783617     0.6340      7.432   282.3128 1.1377e+03     0.2338      0.251      0.364    24.2756 0.0000e+00
      0.188     -0.211     7.0941     84.664     36.491  35.941059     0.6323      7.440   282.1978 9.5254e+02    -0.1861      0.188      0.273    24.2555 0.0000e+00
      0.117     -0.210     7.0468     84.098     36.598  36.045537     0.6254      7.447   282.0231 6.9622e+02    -0.4115      0.112      0.162    24.2533 0.0000e+00
      0.053     -0.189     6.9847     83.353     36.585  36.030491     0.6244      7.441   282.0067 9.7841e+02    -0.4162      0.044      0.064    24.2493 0.0000e+00
      0.006     -0.155     6.9078     82.449     36.625  36.076760     0.6195      7.420   282.0859 1.6702e+03    -0.3953      0.002      0.004    24.2400 0.0000e+00
     -0.027     -0.115     6.8222     81.462     36.629  36.096793     0.5845      7.406   282.5511 2.0250e+03    -0.2804     -0.030     -0.044    24.2403 0.0000e+00
     -0.048     -0.075     6.7312     80.416     36.464  35.955113     0.5225      7.405   283.3285 2.0606e+03    -0.0043     -0.053     -0.077    24.2416 0.0000e+00
     -0.054     -0.040     6.6470     79.449     36.311  35.824779     0.4776      7.406   283.9139 2.0703e+03     0.1962     -0.054     -0.078    24.2323 0.0000e+00
     -0.055     -0.015     6.5860     78.764     36.320  35.854941     0.4732      7.403   284.1231 2.0456e+03     0.2221     -0.052     -0.076    24.2383 0.0000e+00
     -0.056      0.000     6.5528     78.409     36.384  35.938701     0.5160      7.400   284.2230 1.9893e+03     0.2167     -0.057     -0.083    24.2692 0.0000e+00
     -0.051      0.005     6.5395     78.289     36.374  35.948224     0.5808      7.404   284.1746 1.5480e+03     0.2219     -0.052     -0.075    24.2967 0.0000e+00
     -0.041      0.001     6.5356     78.284     36.312  35.906584     0.6138      7.416   283.7963 1.1840e+03     0.2244     -0.038     -0.056    24.3216 0.0000e+00
     -0.036     -0.004     6.5374     78.360     36.257  35.879925     0.6120      7.430   283.5209 1.6293e+03     0.2160     -0.032     -0.046    24.3535 0.0000e+00
     -0.041     -0.007     6.5503     78.587     36.285  35.943546     0.6134      7.436   283.8573 1.7182e+03     0.2124     -0.038     -0.055    24.3831 0.0000e+00
     -0.052     -0.010     6.5774     78.991     36.408  36.104165     0.6222      7.431   284.5070 1.4124e+03     0.2116     -0.052     -0.075    24.4080 0.0000e+00
     -0.062     -0.013     6.6067     79.414     36.503  36.233943     0.6173      7.431   284.7519 1.8282e+03     0.2070     -0.065     -0.094    24.4322 0.0000e+00
     -0.063     -0.013     6.6252     79.702     36.478  36.242266     0.6083      7.442   284.5809 2.3098e+03     0.2168     -0.066     -0.096    24.4692 0.0000e+00
     -0.057     -0.011     6.6330     79.859     36.409  36.204854     0.6144      7.459   284.3320 2.4037e+03     0.2385     -0.054     -0.078    24.5221 0.0000e+00
     -0.056     -0.007     6.6304     79.878     36.406  36.226302     0.6275      7.476   284.0663 2.4507e+03     0.2556     -0.051     -0.072    24.5802 0.0000e+00
     -0.063     -0.004     6.6115     79.688     36.472  36.311057     0.6293      7.486   284.0354 2.4949e+03     0.2407     -0.062     -0.090    24.6286 0.0000e+00
     -0.070     -0.004     6.5729     79.254     36.549  36.403841     0.6168      7.490   284.3880 2.5129e+03     0.2110     -0.073     -0.105    24.6693 0.0000e+00
     -0.070     -0.004     6.5147     78.578     36.591  36.458831     0.5775      7.489   284.8025 2.4613e+03     0.2324     -0.070     -0.102    24.7173 0.0000e+00
     -0.067     -0.002     6.4413     77.708     36.593  36.467769     0.5225      7.488   285.2614 2.1647e+03     0.2553     -0.065     -0.095    24.7518 0.0000e+00
     -0.065      0.001     6.3617     76.753     36.571  36.448395     0.4940      7.487   285.5488 1.5657e+03     0.2132     -0.064     -0.093    24.7725 0.0000e+00
     -0.065      0.002     6.2838     75.814     36.537  36.415156     0.4899      7.488   285.3517 9.6254e+02     0.1803     -0.062     -0.091    24.7963 0.0000e+00
     -0.066      0.001     6.2095     74.919     36.504  36.383502     0.4909      7.493   285.1154 6.4200e+02     0.1935     -0.065     -0.094    24.8157 0.0000e+00
     -0.067      0.001     6.1404     74.089     36.502  36.383296     0.5064      7.497   285.0151 5.6197e+02     0.2204     -0.067     -0.098    24.8257 0.0000e+00
     -0.067      0.001     6.0776     73.335     36.530  36.412664     0.5393      7.498   285.5146 5.5003e+02     0.2306     -0.066     -0.096    24.8271 0.0000e+00
     -0.066      0.001     6.0203     72.646     36.537  36.420965     0.5576      7.499   286.5088 5.8113e+02     0.2264     -0.065     -0.094    24.8270 0.0000e+00
     -0.064      0.001     5.9704     72.047     36.533  36.420138     0.5540      7.501   286.8829 7.6271e+02     0.2300     -0.063     -0.090    24.8285 0.0000e+00
     -0.063      0.001     5.9281     71.540     36.578  36.466200     0.5688      7.505   286.7693 1.1585e+03     0.3045     -0.061     -0.088    24.8309 0.0000e+00
     -0.064      0.000     5.8895     71.078     36.643  36.533232     0.6076      7.510   286.5113 1.6573e+03     0.4562     -0.062     -0.089    24.8334 0.0000e+00
     -0.066      0.000     5.8509     70.617     36.703  36.595370     0.6279      7.514   286.1729 2.0126e+03     0.5072     -0.065     -0.094    24.8357 0.0000e+00
     -0.067     -0.001     5.8117     70.149     36.751  36.645782     0.6217      7.517   286.6363 2.0789e+03     0.4322     -0.066     -0.096    24.8388 0.0000e+00
     -0.066     -0.001     5.7706     69.657     36.738  36.634570     0.5958      7.517   287.8981 1.9009e+03     0.3434     -0.064     -0.094    24.8416 0.0000e+00
     -0.065     -0.001     5.7261     69.123     36.688  36.586857     0.5630      7.518   288.6951 1.5428e+03     0.2574     -0.063     -0.091    24.8442 0.0000e+00
     -0.065     -0.001     5.6824     68.598     36.677  36.577092     0.5560      7.519   288.6149 1.0954e+03     0.2164     -0.063     -0.091    24.8475 0.0000e+00
     -0.066      0.000     5.6414     68.108     36.677  36.580028     0.5578      7.520   288.2193 7.7167e+02     0.2145     -0.065     -0.094    24.8505 0.0000e+00
     -0.068      0.003     5.6018     67.633     36.717  36.622355     0.5479      7.519   288.2129 6.5978e+02     0.2355     -0.066     -0.096    24.8533 0.0000e+00
     -0.068      0.004     5.5644     67.184     36.800  36.707718     0.5464      7.514   288.6249 6.5264e+02     0.3167     -0.066     -0.096    24.8565 0.0000e+00
     -0.066      0.002     5.5335     66.817     36.749  36.659282     0.5589      7.510   288.9842 7.4086e+02     0.4027     -0.066     -0.096    24.8587 0.0000e+00
     -0.061      0.000     5.5131     66.582     36.564  36.481397     0.5694      7.507   289.1157 1.0064e+03     0.4511     -0.063     -0.090    24.8620 0.0000e+00
     -0.056     -0.000     5.5057     66.511     36.471  36.399139     0.5635      7.498   289.1821 1.3181e+03     0.4753     -0.051     -0.074    24.8655 0.0000e+00
     -0.059     -0.000     5.5181     66.670     36.556  36.490551     0.5515      7.484   289.2704 1.4364e+03     0.4518     -0.054     -0.078    24.8685 0.0000e+00
     -0.068     -0.001     5.5566     67.139     36.698  36.633796     0.5438      7.476   288.9792 1.4788e+03     0.4104     -0.072     -0.104    24.8692 0.0000e+00
     -0.070     -0.004     5.6212     67.944     36.721  36.670037     0.5441      7.479   288.6734 1.5449e+03     0.4011     -0.074     -0.106    24.8793 0.0000e+00
     -0.063     -0.004     5.7090     69.065     36.627  36.611127     0.5739      7.487   288.9279 1.3431e+03     0.3394     -0.060     -0.086    24.8978 0.0000e+00
     -0.060     -0.002     5.8139     70.397     36.600  36.620351     0.6095      7.494   289.2169 1.0909e+03     0.2144     -0.056     -0.079    24.9092 0.0000e+00
     -0.064      0.000     5.9196     71.723     36.672  36.718092     0.6160      7.500   289.3291 1.3357e+03     0.1704     -0.063     -0.092    24.9014 0.0000e+00
