* Sea-Bird SBE19plus  Data File:
* FileName = C:\R\Reservoirs\Data\DataNotYetUploadedToEDI\Raw_CTD\RawDownloads\052024_bvr50_S7809_0005.hex
* Software version 2.8.0.119
* Temperature SN = 7809
* Conductivity SN = 7809
* System UpLoad Time = May 23 2024 16:49:44
* <ApplicationData>
* <Seaterm232>
* <SoftwareVersion>2.8.0.119</SoftwareVersion>
* <BuildDate>07-Nov-2018</BuildDate>
* </Seaterm232>
* </ApplicationData>
* <InstrumentState>
* <HardwareData DeviceType='SBE19plus' SerialNumber='01907809'>
*
*    <Manufacturer>Sea-Bird Electronics, Inc.</Manufacturer>
*
*    <FirmwareVersion>3.1.8</FirmwareVersion>
*
*    <FirmwareDate>Mar  9 2016 16:22:29</FirmwareDate>
*
*    <CommandSetVersion>1.4</CommandSetVersion>
*
*    <PCBAssembly PCBSerialNum='120721' AssemblyNum='41054J'/>
*
*    <PCBAssembly PCBSerialNum='120715' AssemblyNum='41967A'/>
*
*    <PCBAssembly PCBSerialNum='116699' AssemblyNum='41606'/>
*
*    <PCBAssembly PCBSerialNum='120719' AssemblyNum='41059D'/>
*
*    <MfgDate>28-Apr-2017</MfgDate>
*
*    <InternalSensors>
*
*       <Sensor id='Main Temperature'>
*
*          <type>temperature0</type>
*
*          <SerialNumber>01907809</SerialNumber>
*
*       </Sensor>
*
*       <Sensor id='Main Conductivity'>
*
*          <type>conductivity-0</type>
*
*          <SerialNumber>01907809</SerialNumber>
*
*       </Sensor>
*
*       <Sensor id='Main Pressure'>
*
*          <type>strain-0</type>
*
*          <SerialNumber>10586018</SerialNumber>
*
*       </Sensor>
*
*    </InternalSensors>
*
*    <ExternalSensors>
*
*       <Sensor id='volt 0'>
*
*          <type>pH</type>
*
*          <SerialNumber>27-0363</SerialNumber>
*
*       </Sensor>
*
*       <Sensor id='volt 1'>
*
*          <type>ORP</type>
*
*          <SerialNumber>27-0363</SerialNumber>
*
*       </Sensor>
*
*       <Sensor id='volt 2'>
*
*          <type>OXY</type>
*
*          <SerialNumber>43-0434</SerialNumber>
*
*       </Sensor>
*
*       <Sensor id='volt 3'>
*
*          <type>PAR</type>
*
*          <SerialNumber>1122</SerialNumber>
*
*       </Sensor>
*
*       <Sensor id='volt 4'>
*
*          <type>ECO AFL/FL</type>
*
*          <SerialNumber>FLNTURT-2496</SerialNumber>
*
*       </Sensor>
*
*       <Sensor id='volt 5'>
*
*          <type>ECO-NTU</type>
*
*          <SerialNumber>FLNTURT-2496</SerialNumber>
*
*       </Sensor>
*
*       <Sensor id='serial'>
*
*          <type>not assigned</type>
*
*          <SerialNumber>not assigned</SerialNumber>
*
*       </Sensor>
*
*    </ExternalSensors>
*
* </HardwareData>
* <StatusData DeviceType='SBE19plus' SerialNumber='01907809'>
*
*    <DateTime>2024-05-23T16:44:28</DateTime>
*
*    <LoggingState>not logging</LoggingState>
*
*    <EventSummary numEvents='0'/>
*
*    <Power>
*
*       <vMain>12.9</vMain>
*
*       <vLith>8.4</vLith>
*
*       <iMain>63.0</iMain>
*
*       <iPump>102.3</iPump>
*
*       <iExt01>20.0</iExt01>
*
*       <iExt2345>37.6</iExt2345>
*
*    </Power>
*
*    <MemorySummary>
*
*       <Bytes>257209</Bytes>
*
*       <Samples>11183</Samples>
*
*       <SamplesFree>2849605</SamplesFree>
*
*       <SampleLength>23</SampleLength>
*
*       <Profiles>5</Profiles>
*
*    </MemorySummary>
*
* </StatusData>
* <ConfigurationData DeviceType='SBE19plus' SerialNumber='01907809'>
*
*    <ProfileMode>
*
*       <ScansToAverage>1</ScansToAverage>
*
*       <MinimumCondFreq>0</MinimumCondFreq>
*
*       <PumpDelay>45</PumpDelay>
*
*       <AutoRun>no</AutoRun>
*
*       <IgnoreSwitch>no</IgnoreSwitch>
*
*    </ProfileMode>
*
*    <Battery>
*
*       <Type>alkaline</Type>
*
*       <CutOff>7.5</CutOff>
*
*    </Battery>
*
*    <DataChannels>
*
*       <ExtVolt0>yes</ExtVolt0>
*
*       <ExtVolt1>yes</ExtVolt1>
*
*       <ExtVolt2>yes</ExtVolt2>
*
*       <ExtVolt3>yes</ExtVolt3>
*
*       <ExtVolt4>yes</ExtVolt4>
*
*       <ExtVolt5>yes</ExtVolt5>
*
*       <SBE38>no</SBE38>
*
*       <WETLABS>no</WETLABS>
*
*       <OPTODE>no</OPTODE>
*
*       <SBE63>no</SBE63>
*
*       <SeaFET>no</SeaFET>
*
*       <GTD>no</GTD>
*
*    </DataChannels>
*
*    <EchoCharacters>yes</EchoCharacters>
*
*    <OutputExecutedTag>yes</OutputExecutedTag>
*
*    <OutputFormat>raw HEX</OutputFormat>
*
* </ConfigurationData>
* <CalibrationCoefficients DeviceType='SBE19plus' SerialNumber='01907809'>
*
*    <Calibration format='TEMP1' id='Main Temperature'>
*
*       <SerialNum>01907809</SerialNum>
*
*       <CalDate>31-Jan-23</CalDate>
*
*       <TA0>1.218232e-03</TA0>
*
*       <TA1>2.815090e-04</TA1>
*
*       <TA2>-1.578887e-06</TA2>
*
*       <TA3>1.972343e-07</TA3>
*
*       <TOFFSET>0.000000e+00</TOFFSET>
*
*    </Calibration>
*
*    <Calibration format='WBCOND0' id='Main Conductivity'>
*
*       <SerialNum>01907809</SerialNum>
*
*       <CalDate>31-Jan-23</CalDate>
*
*       <G>-1.005652e+00</G>
*
*       <H>1.267963e-01</H>
*
*       <I>-1.561708e-04</I>
*
*       <J>2.645944e-05</J>
*
*       <CPCOR>-9.570000e-08</CPCOR>
*
*       <CTCOR>3.250000e-06</CTCOR>
*
*       <CSLOPE>1.000000e+00</CSLOPE>
*
*    </Calibration>
*
*    <Calibration format='STRAIN0' id='Main Pressure'>
*
*       <SerialNum>10586018</SerialNum>
*
*       <CalDate>20-Jan-23</CalDate>
*
*       <PA0>4.416439e-02</PA0>
*
*       <PA1>4.850502e-04</PA1>
*
*       <PA2>-3.090426e-12</PA2>
*
*       <PTCA0>5.254757e+05</PTCA0>
*
*       <PTCA1>1.050255e+01</PTCA1>
*
*       <PTCA2>-2.922435e-01</PTCA2>
*
*       <PTCB0>2.516687e+01</PTCB0>
*
*       <PTCB1>3.750000e-04</PTCB1>
*
*       <PTCB2>0.000000e+00</PTCB2>
*
*       <PTEMPA0>-5.470820e+01</PTEMPA0>
*
*       <PTEMPA1>5.485421e+01</PTEMPA1>
*
*       <PTEMPA2>-3.446578e-01</PTEMPA2>
*
*       <POFFSET>8.500000e-01</POFFSET>
*
*       <PRANGE>1.600000e+02</PRANGE>
*
*    </Calibration>
*
*    <Calibration format='VOLT0' id='Volt 0'>
*
*       <OFFSET>-4.920000e-02</OFFSET>
*
*       <SLOPE>1.248122e+00</SLOPE>
*
*    </Calibration>
*
*    <Calibration format='VOLT0' id='Volt 1'>
*
*       <OFFSET>-4.784000e-02</OFFSET>
*
*       <SLOPE>1.248871e+00</SLOPE>
*
*    </Calibration>
*
*    <Calibration format='VOLT0' id='Volt 2'>
*
*       <OFFSET>-4.864632e-02</OFFSET>
*
*       <SLOPE>1.248714e+00</SLOPE>
*
*    </Calibration>
*
*    <Calibration format='VOLT0' id='Volt 3'>
*
*       <OFFSET>-4.743790e-02</OFFSET>
*
*       <SLOPE>1.248571e+00</SLOPE>
*
*    </Calibration>
*
*    <Calibration format='VOLT0' id='Volt 4'>
*
*       <OFFSET>-4.671263e-02</OFFSET>
*
*       <SLOPE>1.248951e+00</SLOPE>
*
*    </Calibration>
*
*    <Calibration format='VOLT0' id='Volt 5'>
*
*       <OFFSET>-4.871053e-02</OFFSET>
*
*       <SLOPE>1.249136e+00</SLOPE>
*
*    </Calibration>
*
*    <Calibration format='FREQ0' id='external frequency channel'>
*
*       <EXTFREQSF>1.000014e+00</EXTFREQSF>
*
*    </Calibration>
*
* </CalibrationCoefficients>
* <EventCounters DeviceType='SBE19plus' SerialNumber='01907809'>
*
*    <EventSummary numEvents='0'/>
*
* </EventCounters></InstrumentState>
* <Headers>
*
* cast   5 22 May 2024 13:09:49 samples 10106 to 11183, avg = 1, stop = mag switch
*
# nquan = 15
# nvalues = 1078                        
# units = specified
# name 0 = depFM: Depth [fresh water, m]
# name 1 = dz/dtM: Descent Rate [m/s]
# name 2 = sbeox0Mg/L: Oxygen, SBE 43 [mg/l]
# name 3 = sbeox0PS: Oxygen, SBE 43 [% saturation]
# name 4 = specc: Specific Conductance [uS/cm]
# name 5 = c0uS/cm: Conductivity [uS/cm]
# name 6 = flECO-AFL: Fluorescence, WET Labs ECO-AFL/FL [mg/m^3]
# name 7 = ph: pH
# name 8 = orp: Oxidation Reduction Potential [mV]
# name 9 = par/sat/log: PAR/Logarithmic, Satlantic
# name 10 = turbWETntu0: Turbidity, WET Labs ECO [NTU]
# name 11 = prdM: Pressure, Strain Gauge [db]
# name 12 = prdE: Pressure, Strain Gauge [psi]
# name 13 = tv290C: Temperature [ITS-90, deg C]
# name 14 = flag:  0.000e+00
# span 0 =     -0.485,      5.449       
# span 1 =     -0.370,      0.409       
# span 2 =     4.7428,     9.5023       
# span 3 =     46.949,    114.894       
# span 4 =      8.483,    121.018       
# span 5 =   8.277967, 120.137253       
# span 6 =    -0.0669,   101.2212       
# span 7 =      7.374,      8.188       
# span 8 =    85.2313,   191.3273       
# span 9 = 1.1506e+01, 2.4412e+03       
# span 10 =     0.8388,   499.6070      
# span 11 =     -0.486,      5.344      
# span 12 =     -0.706,      7.751      
# span 13 =    14.7927,    31.2879      
# span 14 = 0.0000e+00, 0.0000e+00      
# interval = seconds: 0.25
# start_time = May 22 2024 13:09:49 [Instrument's time stamp, header]
# bad_flag = -9.990e-29
# <Sensors count="9" >
#   <sensor Channel="1" >
#     <!-- Count, Temperature -->
#     <TemperatureSensor SensorID="58" >
#       <SerialNumber>7809</SerialNumber>
#       <CalibrationDate>31-Jan-23</CalibrationDate>
#       <A0>1.21823180e-003</A0>
#       <A1>2.81508993e-004</A1>
#       <A2>-1.57888696e-006</A2>
#       <A3>1.97234302e-007</A3>
#       <Slope>1.00000000</Slope>
#       <Offset>0.0000</Offset>
#     </TemperatureSensor>
#   </sensor>
#   <sensor Channel="2" >
#     <!-- Frequency 0, Conductivity -->
#     <ConductivitySensor SensorID="3" >
#       <SerialNumber>7809</SerialNumber>
#       <CalibrationDate>31-Jan-23</CalibrationDate>
#       <UseG_J>1</UseG_J>
#       <!-- Cell const and series R are applicable only for wide range sensors. -->
#       <SeriesR>0.0000</SeriesR>
#       <CellConst>2000.0000</CellConst>
#       <ConductivityType>0</ConductivityType>
#       <Coefficients equation="0" >
#         <A>0.00000000e+000</A>
#         <B>0.00000000e+000</B>
#         <C>0.00000000e+000</C>
#         <D>0.00000000e+000</D>
#         <M>0.0</M>
#         <CPcor>-9.57000000e-008</CPcor>
#       </Coefficients>
#       <Coefficients equation="1" >
#         <G>-1.00565232e+000</G>
#         <H>1.26796307e-001</H>
#         <I>-1.56170788e-004</I>
#         <J>2.64594368e-005</J>
#         <CPcor>-9.57000000e-008</CPcor>
#         <CTcor>3.2500e-006</CTcor>
#         <!-- WBOTC not applicable unless ConductivityType = 1. -->
#         <WBOTC>0.00000000e+000</WBOTC>
#       </Coefficients>
#       <Slope>1.00000000</Slope>
#       <Offset>0.00000</Offset>
#     </ConductivitySensor>
#   </sensor>
#   <sensor Channel="3" >
#     <!-- Count, Pressure, Strain Gauge -->
#     <PressureSensor SensorID="46" >
#       <SerialNumber>7809</SerialNumber>
#       <CalibrationDate>20-Jan-23</CalibrationDate>
#       <PA0>4.41643944e-002</PA0>
#       <PA1>4.85050239e-004</PA1>
#       <PA2>-3.09042623e-012</PA2>
#       <PTEMPA0>-5.47081996e+001</PTEMPA0>
#       <PTEMPA1>5.48542136e+001</PTEMPA1>
#       <PTEMPA2>-3.44657813e-001</PTEMPA2>
#       <PTCA0>5.25475731e+005</PTCA0>
#       <PTCA1>1.05025484e+001</PTCA1>
#       <PTCA2>-2.92243463e-001</PTCA2>
#       <PTCB0>2.51668750e+001</PTCB0>
#       <PTCB1>3.75000000e-004</PTCB1>
#       <PTCB2>0.00000000e+000</PTCB2>
#       <Offset>0.000000</Offset>
#     </PressureSensor>
#   </sensor>
#   <sensor Channel="4" >
#     <!-- A/D voltage 0, Oxygen, SBE 43 -->
#     <OxygenSensor SensorID="38" >
#       <SerialNumber>0434</SerialNumber>
#       <CalibrationDate>18-Feb-23</CalibrationDate>
#       <Use2007Equation>1</Use2007Equation>
#       <CalibrationCoefficients equation="0" >
#         <!-- Coefficients for Owens-Millard equation. -->
#         <Boc>0.0000</Boc>
#         <Soc>0.0000e+000</Soc>
#         <offset>0.0000</offset>
#         <Pcor>0.00e+000</Pcor>
#         <Tcor>0.0000</Tcor>
#         <Tau>0.0</Tau>
#       </CalibrationCoefficients>
#       <CalibrationCoefficients equation="1" >
#         <!-- Coefficients for Sea-Bird equation - SBE calibration in 2007 and later. -->
#         <Soc>5.1878e-001</Soc>
#         <offset>-0.5046</offset>
#         <A>-4.2788e-003</A>
#         <B> 1.5372e-004</B>
#         <C>-2.1853e-006</C>
#         <D0> 2.5826e+000</D0>
#         <D1> 1.92634e-004</D1>
#         <D2>-4.64803e-002</D2>
#         <E> 3.6000e-002</E>
#         <Tau20> 0.9900</Tau20>
#         <H1>-3.3000e-002</H1>
#         <H2> 5.0000e+003</H2>
#         <H3> 1.4500e+003</H3>
#       </CalibrationCoefficients>
#     </OxygenSensor>
#   </sensor>
#   <sensor Channel="5" >
#     <!-- A/D voltage 1, PAR/Logarithmic, Satlantic -->
#     <PARLog_SatlanticSensor SensorID="76" >
#       <SerialNumber>1122</SerialNumber>
#       <CalibrationDate>08-Sep-2021</CalibrationDate>
#       <a0>9.6751e-001</a0>
#       <a1>8.0992e-001</a1>
#       <Im>1.3589e+000</Im>
#       <Multiplier>1.0000e+000</Multiplier>
#     </PARLog_SatlanticSensor>
#   </sensor>
#   <sensor Channel="6" >
#     <!-- A/D voltage 2, pH -->
#     <pH_Sensor SensorID="43" >
#       <SerialNumber>0363</SerialNumber>
#       <CalibrationDate>28-Feb-23</CalibrationDate>
#       <Slope>4.7364</Slope>
#       <Offset>2.5433</Offset>
#     </pH_Sensor>
#   </sensor>
#   <sensor Channel="7" >
#     <!-- A/D voltage 3, Oxidation Reduction Potential -->
#     <OxidationReductionPotentialSensor SensorID="41" >
#       <SerialNumber>0363</SerialNumber>
#       <CalibrationDate>28-Feb-23</CalibrationDate>
#       <B>2.499480</B>
#       <M>-0.496195</M>
#       <Offset>0.0</Offset>
#     </OxidationReductionPotentialSensor>
#   </sensor>
#   <sensor Channel="8" >
#     <!-- A/D voltage 4, Fluorometer, WET Labs ECO-AFL/FL -->
#     <FluoroWetlabECO_AFL_FL_Sensor SensorID="20" >
#       <SerialNumber>FLNTURT-2496</SerialNumber>
#       <CalibrationDate>02-Sep-2021</CalibrationDate>
#       <ScaleFactor>4.80000000e+001</ScaleFactor>
#       <!-- Dark output -->
#       <Vblank>0.0550</Vblank>
#     </FluoroWetlabECO_AFL_FL_Sensor>
#   </sensor>
#   <sensor Channel="9" >
#     <!-- A/D voltage 5, Turbidity Meter, WET Labs, ECO-NTU -->
#     <TurbidityMeter SensorID="67" >
#       <SerialNumber>FLNTURT--2496</SerialNumber>
#       <CalibrationDate>02-Sep-2021</CalibrationDate>
#       <ScaleFactor>197.000000</ScaleFactor>
#       <!-- Dark output -->
#       <DarkVoltage>0.070000</DarkVoltage>
#     </TurbidityMeter>
#   </sensor>
# </Sensors>
# datcnv_date = May 23 2024 16:58:57, 7.26.7.129 [datcnv_vars = 14]
# datcnv_in = C:\R\Reservoirs\Data\DataNotYetUploadedToEDI\Raw_CTD\RawDownloads\052224_ccr99_S7809005.hex C:\R\Reservoirs\Data\DataNotYetUploadedToEDI\Raw_CTD\RawDownloads\SBE19plusV2_7809_start20230701.xmlcon
# datcnv_skipover = 0
# datcnv_ox_hysteresis_correction = yes
# datcnv_ox_tau_correction = yes
# filter_date = May 23 2024 16:59:17, 7.26.7.129
# filter_in = C:\R\Reservoirs\Data\DataNotYetUploadedToEDI\Raw_CTD\RawDownloads\052224_ccr99_S7809005.cnv
# filter_low_pass_tc_A = 0.030
# filter_low_pass_tc_B = 0.150
# filter_low_pass_A_vars = sbeox0Mg/L prdM prdE tv290C
# filter_low_pass_B_vars = depFM dz/dtM sbeox0PS specc c0uS/cm flECO-AFL ph orp par/sat/log turbWETntu0
# alignctd_date = May 23 2024 16:59:35, 7.26.7.129
# alignctd_in = C:\R\Reservoirs\Data\DataNotYetUploadedToEDI\Raw_CTD\RawDownloads\052224_ccr99_S7809005.cnv
# alignctd_adv = dz/dtM 1.000, sbeox0PS 1.000, specc 1.000, c0uS/cm 1.000, flECO-AFL 1.000, ph 1.000, orp 1.000, turbWETntu0 1.000                                                                                                   
# file_type = ascii
*END*
     -0.484      0.163     6.7720     93.907    110.425 118.072391     0.3989      7.468   125.5807 1.2853e+03    11.4508     -0.486     -0.706    31.2754 0.0000e+00
     -0.441      0.232     6.7823     95.081    111.958 117.912828     0.4236      7.536   110.6888 1.0170e+03    11.5374     -0.450     -0.653    31.2879 0.0000e+00
     -0.356      0.299     6.8382     96.206    113.053 117.645507     0.4250      7.556   104.1981 6.6869e+02     9.8283     -0.354     -0.514    30.7329 0.0000e+00
     -0.251      0.359     7.0316     97.600    114.244 117.832275     0.4085      7.552    99.9311 4.5714e+02     6.6703     -0.248     -0.359    29.4551 0.0000e+00
     -0.141      0.400     7.3209     99.032    115.513 118.385632     0.3903      7.532    97.3838 3.7685e+02     4.9177     -0.139     -0.200    28.3846 0.0000e+00
     -0.031      0.409     7.4915    100.322    116.653 119.047212     0.3798      7.506    95.5982 3.2008e+02     4.7608     -0.029     -0.043    27.6081 0.0000e+00
      0.080      0.382     7.6535    101.310    117.307 119.523403     0.3727      7.479    93.7417 2.5134e+02     4.7738      0.075      0.109    26.9613 0.0000e+00
      0.195      0.325     7.8455    101.832    117.376 119.746889     0.3871      7.454    92.4887 1.9672e+02     4.8017      0.194      0.281    26.5231 0.0000e+00
      0.295      0.250     8.0037    101.961    116.975 119.647128     0.4208      7.434    91.5475 1.7612e+02     4.8248      0.304      0.442    26.2087 0.0000e+00
      0.357      0.169     8.1489    101.857    116.510 119.400814     0.4394      7.418    90.3636 1.7658e+02     4.8481      0.368      0.535    25.9750 0.0000e+00
      0.372      0.092     8.2513    101.506    116.589 119.508707     0.4540      7.406    89.9617 1.8549e+02     4.9119      0.376      0.545    25.8724 0.0000e+00
      0.358      0.030     8.2751    100.964    117.272 120.059699     0.4724      7.397    94.6892 1.9642e+02     4.9474      0.352      0.511    25.9821 0.0000e+00
      0.337     -0.008     8.2492    100.434    117.552 120.137253     0.4706      7.390   100.8903 2.0548e+02     4.9017      0.328      0.475    26.1523 0.0000e+00
      0.321     -0.016     8.2302    100.056    116.701 119.044360     0.4647      7.385    98.9474 2.1101e+02     4.8376      0.311      0.451    26.2698 0.0000e+00
      0.316      0.002     8.1977     99.859    115.450 117.484976     0.4680      7.380    97.5259 2.1532e+02     4.8211      0.307      0.445    26.2788 0.0000e+00
      0.321      0.035     8.1607     99.858    114.877 116.508723     0.4610      7.376   103.4918 2.2180e+02     4.8048      0.314      0.454    26.1849 0.0000e+00
      0.331      0.071     8.1265     99.934    115.604 116.732028     0.4466      7.374   108.0130 2.3047e+02     4.7780      0.322      0.468    26.0926 0.0000e+00
      0.351      0.097     8.1101     99.839    117.179 117.763330     0.4353      7.374   106.8491 2.3781e+02     4.7696      0.339      0.492    26.0062 0.0000e+00
      0.386      0.106     8.1092     99.475    118.102 118.211117     0.4321      7.374   103.2718 2.4608e+02     4.7715      0.372      0.540    25.8925 0.0000e+00
      0.435      0.100     8.1344     98.298    117.708 117.495004     0.4586      7.374    99.4333 2.5323e+02     4.8012      0.428      0.620    25.7248 0.0000e+00
      0.479      0.082     8.1899     95.693    116.589 116.175731     0.5056      7.375    93.6501 2.5956e+02     4.8556      0.481      0.697    25.4928 0.0000e+00
      0.499      0.061     8.2175     92.952    115.714 115.127679     0.5335      7.377    89.1005 2.6835e+02     4.8822      0.497      0.722    25.2329 0.0000e+00
      0.495      0.041     8.2257     91.615    115.699 114.951273     0.5389      7.378    87.4445 3.0379e+02     4.8833      0.487      0.707    25.0112 0.0000e+00
      0.483      0.027     8.2069     91.146    115.910 115.061796     0.5294      7.378    86.2749 3.4011e+02     4.8691      0.472      0.684    24.8830 0.0000e+00
      0.478      0.031     7.9384     90.081    115.631 114.743998     0.5257      7.378    85.7139 3.0730e+02     4.8127      0.461      0.669    24.8173 0.0000e+00
