* Sea-Bird SBE19plus  Data File:
* FileName = C:\DATA\060418_fcr50_0001.hex
* Software version 2.6.3.104 SB_Terminal.dll
* Temperature SN = 7809
* Conductivity SN = 7809
* System UpLoad Time = Jun 04 2018 16:27:19
* <ApplicationData>
* <Seaterm232>
* <SoftwareVersion>2.6.3.104</SoftwareVersion>
* <BuildDate>30-Jun-2017</BuildDate>
* </Seaterm232>
* </ApplicationData>
* cast   1 31 May 2018 15:54:59 samples 1 to 1746, avg = 1, stop = mag switch
# nquan = 15
# nvalues = 1137                        
# units = specified
# name 0 = depFM: Depth [fresh water, m]
# name 1 = dz/dtM: Descent Rate [m/s]
# name 2 = sbeox0Mg/L: Oxygen, SBE 43 [mg/l]
# name 3 = sbeox0PS: Oxygen, SBE 43 [% saturation]
# name 4 = specc: Specific Conductance [uS/cm]
# name 5 = c0uS/cm: Conductivity [uS/cm]
# name 6 = flECO-AFL: Fluorescence, WET Labs ECO-AFL/FL [mg/m^3]
# name 7 = ph: pH
# name 8 = orp: Oxidation Reduction Potential [mV]
# name 9 = par/sat/log: PAR/Logarithmic, Satlantic
# name 10 = turbWETntu0: Turbidity, WET Labs ECO [NTU]
# name 11 = prdM: Pressure, Strain Gauge [db]
# name 12 = prdE: Pressure, Strain Gauge [psi]
# name 13 = tv290C: Temperature [ITS-90, deg C]
# name 14 = flag:  0.000e+00
# span 0 =     -0.662,     11.181       
# span 1 =     -3.857,      2.803       
# span 2 =    -0.0203,    11.0309       
# span 3 =     -0.172,    125.185       
# span 4 =      0.422,    100.585       
# span 5 =   0.426145,  64.891412       
# span 6 =    -0.2025,     9.8606       
# span 7 =     -2.492,      7.874       
# span 8 = -1240.7455,   457.6793       
# span 9 = 1.2536e-01, 1.0947e+03       
# span 10 =    -0.3073,    25.9940      
# span 11 =     -0.650,     10.965      
# span 12 =     -0.942,     15.904      
# span 13 =     7.2483,    27.3165      
# span 14 = 0.0000e+00, 0.0000e+00      
# interval = seconds: 0.25
# start_time = May 31 2018 15:54:59 [Instrument's time stamp, header]
# bad_flag = -9.990e-29
# <Sensors count="9" >
#   <sensor Channel="1" >
#     <!-- Count, Temperature -->
#     <TemperatureSensor SensorID="58" >
#       <SerialNumber>7809</SerialNumber>
#       <CalibrationDate>09-Mar-18</CalibrationDate>
#       <A0>1.21093245e-003</A0>
#       <A1>2.84356597e-004</A1>
#       <A2>-1.94507398e-006</A2>
#       <A3>2.12806664e-007</A3>
#       <Slope>1.00000000</Slope>
#       <Offset>0.0000</Offset>
#     </TemperatureSensor>
#   </sensor>
#   <sensor Channel="2" >
#     <!-- Frequency 0, Conductivity -->
#     <ConductivitySensor SensorID="3" >
#       <SerialNumber>7809</SerialNumber>
#       <CalibrationDate>09-Mar-18</CalibrationDate>
#       <UseG_J>1</UseG_J>
#       <!-- Cell const and series R are applicable only for wide range sensors. -->
#       <SeriesR>0.0000</SeriesR>
#       <CellConst>2000.0000</CellConst>
#       <ConductivityType>0</ConductivityType>
#       <Coefficients equation="0" >
#         <A>0.00000000e+000</A>
#         <B>0.00000000e+000</B>
#         <C>0.00000000e+000</C>
#         <D>0.00000000e+000</D>
#         <M>0.0</M>
#         <CPcor>-9.57000000e-008</CPcor>
#       </Coefficients>
#       <Coefficients equation="1" >
#         <G>-1.00672082e+000</G>
#         <H>1.26906489e-001</H>
#         <I>-1.40584351e-004</I>
#         <J>2.47837121e-005</J>
#         <CPcor>-9.57000000e-008</CPcor>
#         <CTcor>3.2500e-006</CTcor>
#         <!-- WBOTC not applicable unless ConductivityType = 1. -->
#         <WBOTC>0.00000000e+000</WBOTC>
#       </Coefficients>
#       <Slope>1.00000000</Slope>
#       <Offset>0.00000</Offset>
#     </ConductivitySensor>
#   </sensor>
#   <sensor Channel="3" >
#     <!-- Count, Pressure, Strain Gauge -->
#     <PressureSensor SensorID="46" >
#       <SerialNumber>7809</SerialNumber>
#       <CalibrationDate>07-Mar-18</CalibrationDate>
#       <PA0>-4.08176359e-002</PA0>
#       <PA1>4.85188419e-004</PA1>
#       <PA2>-3.51168169e-012</PA2>
#       <PTEMPA0>-5.37806900e+001</PTEMPA0>
#       <PTEMPA1>5.36620721e+001</PTEMPA1>
#       <PTEMPA2>4.87214332e-002</PTEMPA2>
#       <PTCA0>5.25213435e+005</PTCA0>
#       <PTCA1>1.79532409e+000</PTCA1>
#       <PTCA2>-2.84353509e-001</PTCA2>
#       <PTCB0>2.51668750e+001</PTCB0>
#       <PTCB1>3.75000000e-004</PTCB1>
#       <PTCB2>0.00000000e+000</PTCB2>
#       <Offset>0.000000</Offset>
#     </PressureSensor>
#   </sensor>
#   <sensor Channel="4" >
#     <!-- A/D voltage 0, pH -->
#     <pH_Sensor SensorID="43" >
#       <SerialNumber>0363</SerialNumber>
#       <CalibrationDate>16-Mar-18</CalibrationDate>
#       <Slope>4.6194</Slope>
#       <Offset>2.5947</Offset>
#     </pH_Sensor>
#   </sensor>
#   <sensor Channel="5" >
#     <!-- A/D voltage 1, Oxidation Reduction Potential -->
#     <OxidationReductionPotentialSensor SensorID="41" >
#       <SerialNumber>0363</SerialNumber>
#       <CalibrationDate>16-Mar-18</CalibrationDate>
#       <B>2.499480</B>
#       <M>-0.496195</M>
#       <Offset>0.0</Offset>
#     </OxidationReductionPotentialSensor>
#   </sensor>
#   <sensor Channel="6" >
#     <!-- A/D voltage 2, Oxygen, SBE 43 -->
#     <OxygenSensor SensorID="38" >
#       <SerialNumber>0434</SerialNumber>
#       <CalibrationDate>13-Mar-18</CalibrationDate>
#       <Use2007Equation>1</Use2007Equation>
#       <CalibrationCoefficients equation="0" >
#         <!-- Coefficients for Owens-Millard equation. -->
#         <Boc>0.0000</Boc>
#         <Soc>0.0000e+000</Soc>
#         <offset>0.0000</offset>
#         <Pcor>0.00e+000</Pcor>
#         <Tcor>0.0000</Tcor>
#         <Tau>0.0</Tau>
#       </CalibrationCoefficients>
#       <CalibrationCoefficients equation="1" >
#         <!-- Coefficients for Sea-Bird equation - SBE calibration in 2007 and later. -->
#         <Soc>4.5718e-001</Soc>
#         <offset>-0.6113</offset>
#         <A>-4.0649e-003</A>
#         <B> 2.0945e-004</B>
#         <C>-3.3182e-006</C>
#         <D0> 2.5826e+000</D0>
#         <D1> 1.92634e-004</D1>
#         <D2>-4.64803e-002</D2>
#         <E> 3.6000e-002</E>
#         <Tau20> 1.2200</Tau20>
#         <H1>-3.3000e-002</H1>
#         <H2> 5.0000e+003</H2>
#         <H3> 1.4500e+003</H3>
#       </CalibrationCoefficients>
#     </OxygenSensor>
#   </sensor>
#   <sensor Channel="7" >
#     <!-- A/D voltage 3, PAR/Logarithmic, Satlantic -->
#     <PARLog_SatlanticSensor SensorID="76" >
#       <SerialNumber>1122</SerialNumber>
#       <CalibrationDate>22-Jun-2017</CalibrationDate>
#       <a0>9.6090e-001</a0>
#       <a1>8.0780e-001</a1>
#       <Im>1.3589e+000</Im>
#       <Multiplier>1.0000e+000</Multiplier>
#     </PARLog_SatlanticSensor>
#   </sensor>
#   <sensor Channel="8" >
#     <!-- A/D voltage 4, Fluorometer, WET Labs ECO-AFL/FL -->
#     <FluoroWetlabECO_AFL_FL_Sensor SensorID="20" >
#       <SerialNumber>FLNTURT-2496</SerialNumber>
#       <CalibrationDate>25-Jan-2017</CalibrationDate>
#       <ScaleFactor>5.30000000e+001</ScaleFactor>
#       <!-- Dark output -->
#       <Vblank>0.0560</Vblank>
#     </FluoroWetlabECO_AFL_FL_Sensor>
#   </sensor>
#   <sensor Channel="9" >
#     <!-- A/D voltage 5, Turbidity Meter, WET Labs, ECO-NTU -->
#     <TurbidityMeter SensorID="67" >
#       <SerialNumber>FLNTURT-2496</SerialNumber>
#       <CalibrationDate>25-Jan-2017</CalibrationDate>
#       <ScaleFactor>176.000000</ScaleFactor>
#       <!-- Dark output -->
#       <DarkVoltage>0.072000</DarkVoltage>
#     </TurbidityMeter>
#   </sensor>
# </Sensors>
# datcnv_date = Jun 04 2018 16:37:15, 7.26.7.114 [datcnv_vars = 14]
# datcnv_in = C:\DATA\053118_bvr50.hex C:\DATA\SBE19plusV2_7809.xmlcon
# datcnv_skipover = 0
# datcnv_ox_hysteresis_correction = yes
# datcnv_ox_tau_correction = yes
# filter_date = Jun 04 2018 16:37:47, 7.26.7.114
# filter_in = C:\DATA\053118_bvr50.cnv
# filter_low_pass_tc_A = 0.030
# filter_low_pass_tc_B = 0.150
# filter_low_pass_A_vars = prdM prdE tv290C
# filter_low_pass_B_vars = depFM dz/dtM sbeox0Mg/L sbeox0PS specc c0uS/cm flECO-AFL ph orp par/sat/log turbWETntu0
# alignctd_date = Jun 04 2018 16:38:15, 7.26.7.114
# alignctd_in = C:\DATA\053118_bvr50.cnv
# alignctd_adv = dz/dtM 1.000, sbeox0Mg/L 1.000, sbeox0PS 1.000, specc 1.000, c0uS/cm 1.000, flECO-AFL 1.000, ph 1.000, orp 1.000, turbWETntu0 1.000                                                                                 
# file_type = ascii
*END*
     -0.661 4.3139e-20     7.9004     99.460      0.528   0.551466    -0.1854     -2.426 -1240.7455 6.7497e+02    -0.0447     -0.648     -0.940    27.2607 0.0000e+00
     -0.661 3.9217e-21     7.9034     99.469      0.517   0.539813    -0.1812     -2.427 -1240.7455 6.6262e+02    -0.0133     -0.649     -0.941    27.2362 0.0000e+00
     -0.661 3.5652e-22     7.9061     99.478      0.527   0.550093    -0.1802     -2.427 -1240.7455 6.5196e+02     0.0438     -0.648     -0.939    27.2123 0.0000e+00
     -0.661 3.2410e-23     7.9094     99.498      0.527   0.548939    -0.1818     -2.427 -1240.7455 6.4483e+02     0.0355     -0.647     -0.940    27.1906 0.0000e+00
     -0.661 2.9464e-24     7.9115     99.509      0.505   0.525863    -0.1828     -2.428 -1240.7455 6.3818e+02    -0.0218     -0.648     -0.941    27.1691 0.0000e+00
     -0.661 2.6786e-25     7.9109     99.490      0.503   0.524720    -0.1826     -2.428 -1240.7455 6.3714e+02    -0.0389     -0.648     -0.940    27.1556 0.0000e+00
     -0.661 2.4351e-26     7.9106     99.480      0.513   0.535115    -0.1791     -2.428 -1240.7455 6.5173e+02    -0.0183     -0.648     -0.940    27.1413 0.0000e+00
     -0.661 2.2137e-27     7.9117     99.486      0.503   0.524730    -0.1772     -2.428 -1240.7455 6.8208e+02    -0.0164     -0.648     -0.940    27.1281 0.0000e+00
     -0.661 2.0124e-28     7.9126     99.487      0.505   0.525976    -0.1687     -2.428 -1240.7455 7.1307e+02    -0.0778     -0.648     -0.940    27.1196 0.0000e+00
     -0.661 1.8295e-29     7.9134     99.487      0.528   0.550186    -0.1596     -2.428 -1240.7455 7.3186e+02    -0.1803     -0.648     -0.940    27.1142 0.0000e+00
     -0.661 1.6632e-30     7.9134     99.482      0.542   0.563802    -0.1676     -2.429 -1240.7455 7.3969e+02    -0.2488     -0.648     -0.940    27.1109 0.0000e+00
     -0.661 1.5120e-31     7.9128     99.469      0.542   0.563792    -0.1733     -2.429 -1240.7455 7.4252e+02    -0.2041     -0.648     -0.940    27.1080 0.0000e+00
     -0.661 1.3745e-32     7.9124     99.459      0.528   0.550071    -0.1651     -2.429 -1240.7455 7.4334e+02    -0.0673     -0.648     -0.940    27.1014 0.0000e+00
     -0.661 1.2495e-33     7.9136     99.468      0.504   0.524718    -0.1596     -2.429 -1240.7455 7.4345e+02     0.0321     -0.649     -0.941    27.0939 0.0000e+00
     -0.661 1.1360e-34     7.9151     99.483      0.490   0.510884    -0.1715     -2.429 -1240.7455 7.4380e+02     0.0520     -0.648     -0.940    27.0910 0.0000e+00
     -0.661 1.0327e-35     7.9154     99.483      0.489   0.509626    -0.1890     -2.429 -1240.7455 7.4319e+02     0.0203     -0.648     -0.940    27.0901 0.0000e+00
     -0.661 9.3880e-37     7.9154     99.481      0.489   0.509512    -0.1877     -2.429 -1240.7455 7.3234e+02     0.0150     -0.648     -0.940    27.0863 0.0000e+00
     -0.661 8.5345e-38     7.9155     99.481      0.489   0.509511    -0.1745     -2.429 -1240.7455 7.4276e+02     0.0185     -0.649     -0.941    27.0827 0.0000e+00
     -0.661 7.7590e-39     7.9152     99.475      0.489   0.509614    -0.1671     -2.429 -1240.7455 8.0887e+02    -0.0294     -0.648     -0.940    27.0809 0.0000e+00
     -0.661 7.0535e-40     7.9156     99.480      0.490   0.510758    -0.1635     -2.429 -1240.7455 8.7659e+02    -0.0453     -0.649     -0.941    27.0794 0.0000e+00
     -0.661 6.4125e-41     7.9161     99.488      0.503   0.523335    -0.1669     -2.429 -1240.7455 9.0433e+02    -0.0213     -0.648     -0.940    27.0783 0.0000e+00
     -0.661 5.8295e-42     7.9158     99.488      0.514   0.534864    -0.1799     -2.429 -1240.7455 9.1202e+02    -0.0136     -0.649     -0.941    27.0774 0.0000e+00
     -0.661 5.2995e-43     7.9158     99.491      0.502   0.523335    -0.1835     -2.429 -1240.7455 9.1495e+02    -0.0128     -0.649     -0.941    27.0765 0.0000e+00
     -0.661 4.8176e-44     7.9155     99.493      0.490   0.510758    -0.1730     -2.429 -1240.7455 9.1629e+02    -0.0121     -0.648     -0.940    27.0759 0.0000e+00
     -0.661 4.3797e-45     7.9153     99.499      0.489   0.509615    -0.1728     -2.429 -1240.7455 9.1643e+02    -0.0357     -0.648     -0.940    27.0766 0.0000e+00
     -0.661 3.9815e-46     7.9158     99.514      0.489   0.509511    -0.1816     -2.428 -1240.7455 9.1583e+02    -0.0536     -0.649     -0.942    27.0778 0.0000e+00
     -0.661 3.6196e-47     7.9158     99.519      0.489   0.509502    -0.1780     -2.428 -1240.7455 9.1478e+02    -0.0152     -0.648     -0.941    27.0793 0.0000e+00
     -0.661 3.2931e-48     7.9153     99.518      0.489   0.509511    -0.1759     -2.428 -1240.7455 9.1423e+02     0.0319     -0.648     -0.940    27.0828 0.0000e+00
     -0.661 3.2803e-49     7.9148     99.513      0.489   0.509624    -0.1826     -2.428 -1240.7455 9.1459e+02    -0.0027     -0.648     -0.940    27.0885 0.0000e+00
     -0.661 3.4501e-49     7.9149     99.515      0.490   0.510862    -0.1857     -2.428 -1240.7455 9.1514e+02    -0.1287     -0.648     -0.940    27.0940 0.0000e+00
     -0.661 3.4984e-48     7.9156     99.525      0.503   0.524478    -0.1857     -2.428 -1240.7455 9.1535e+02    -0.2400     -0.649     -0.941    27.0974 0.0000e+00
     -0.661 3.8456e-47     7.9155     99.524      0.525   0.547441    -0.1830     -2.428 -1240.7455 9.1581e+02    -0.2504     -0.649     -0.941    27.0991 0.0000e+00
     -0.661 4.2301e-46     7.9141     99.509      0.513   0.534864    -0.1803     -2.428 -1240.7455 9.1710e+02    -0.1619     -0.649     -0.941    27.1000 0.0000e+00
     -0.661 4.6531e-45     7.9132     99.499      0.479   0.499228    -0.1812     -2.428 -1240.7455 9.1958e+02    -0.0553     -0.649     -0.941    27.1003 0.0000e+00
     -0.661 5.1184e-44     7.9137     99.507      0.477   0.497038    -0.1837     -2.428 -1240.7455 9.2359e+02     0.0009     -0.649     -0.941    27.1007 0.0000e+00
     -0.661 5.6303e-43     7.9154     99.528      0.488   0.508377    -0.1842     -2.428 -1240.7455 9.3049e+02     0.0284     -0.649     -0.941    27.1013 0.0000e+00
     -0.661 6.1933e-42     7.9166     99.540      0.489   0.509511    -0.1872     -2.428 -1240.7455 9.4094e+02    -0.0275     -0.649     -0.941    27.1017 0.0000e+00
     -0.661 6.8127e-41     7.9163     99.528      0.490   0.510749    -0.1922     -2.428 -1240.7455 9.5366e+02    -0.1559     -0.649     -0.941    27.1026 0.0000e+00
     -0.661 7.4939e-40     7.9167     99.523      0.503   0.523345    -0.1795     -2.429 -1240.7455 9.6721e+02    -0.2122     -0.649     -0.941    27.1042 0.0000e+00
     -0.661 8.2433e-39     7.9186     99.539      0.514   0.534989    -0.1621     -2.429 -1240.7455 9.7988e+02    -0.2202     -0.649     -0.942    27.1051 0.0000e+00
     -0.661 9.0676e-38     7.9199     99.549      0.504   0.524707    -0.1656     -2.429 -1240.7455 9.9106e+02    -0.2521     -0.648     -0.941    27.1031 0.0000e+00
     -0.661 9.9744e-37     7.9191     99.535      0.505   0.525850    -0.1762     -2.429 -1240.7455 1.0007e+03    -0.2013     -0.649     -0.940    27.0972 0.0000e+00
     -0.661 1.0972e-35     7.9178     99.520      0.527   0.548814    -0.1808     -2.429 -1240.7455 1.0088e+03    -0.0638     -0.649     -0.941    27.0913 0.0000e+00
     -0.661 1.2069e-34     7.9184     99.531      0.527   0.548709    -0.1838     -2.429 -1240.7455 1.0162e+03    -0.0243     -0.649     -0.941    27.0865 0.0000e+00
     -0.661 1.3276e-33     7.9184     99.538      0.504   0.524593    -0.1858     -2.429 -1240.7455 1.0219e+03    -0.0585     -0.648     -0.940    27.0829 0.0000e+00
     -0.661 1.4604e-32     7.9168     99.526      0.490   0.510872    -0.1868     -2.428 -1240.7455 1.0264e+03    -0.0503     -0.649     -0.941    27.0815 0.0000e+00
     -0.661 1.6064e-31     7.9157     99.521      0.489   0.509626    -0.1868     -2.428 -1240.7455 1.0323e+03    -0.0168     -0.649     -0.942    27.0817 0.0000e+00
     -0.661 1.7670e-30     7.9149     99.521      0.489   0.509522    -0.1843     -2.428 -1240.7455 1.0383e+03     0.0102     -0.649     -0.941    27.0839 0.0000e+00
     -0.661 1.9437e-29     7.9142     99.522      0.489   0.509615    -0.1843     -2.428 -1240.7455 1.0423e+03     0.0027     -0.649     -0.941    27.0880 0.0000e+00
     -0.661 2.1381e-28     7.9142     99.532      0.490   0.510758    -0.1870     -2.428 -1240.7455 1.0442e+03    -0.0168     -0.649     -0.941    27.0929 0.0000e+00
     -0.661 2.3519e-27     7.9142     99.541      0.502   0.523335    -0.1800     -2.428 -1240.7455 1.0448e+03    -0.0108     -0.649     -0.941    27.0981 0.0000e+00
     -0.662 2.5871e-26     7.9132     99.537      0.513   0.534864    -0.1732     -2.428 -1240.7455 1.0434e+03    -0.0166     -0.649     -0.941    27.1035 0.0000e+00
     -0.662 2.8458e-25     7.9125     99.537      0.502   0.523335    -0.1793     -2.427 -1240.7455 1.0415e+03    -0.0568     -0.649     -0.942    27.1092 0.0000e+00
     -0.662 3.1304e-24     7.9120     99.539      0.490   0.510757    -0.1804     -2.427 -1240.7455 1.0476e+03    -0.0691     -0.649     -0.941    27.1145 0.0000e+00
     -0.662 3.4434e-23     7.9109     99.533      0.489   0.509604    -0.1764     -2.427 -1240.7455 1.0616e+03    -0.0435     -0.649     -0.941    27.1195 0.0000e+00
     -0.662 3.7878e-22     7.9099     99.528      0.488   0.509396    -0.1779     -2.427 -1240.7455 1.0740e+03    -0.0222     -0.649     -0.941    27.1242 0.0000e+00
     -0.662 4.1666e-21     7.9093     99.527      0.487   0.508242    -0.1887     -2.427 -1240.7455 1.0827e+03     0.0058     -0.649     -0.941    27.1291 0.0000e+00
     -0.662 4.5832e-20     7.9093     99.534      0.475   0.495665    -0.1967     -2.427 -1240.7455 1.0891e+03     0.0199     -0.649     -0.941    27.1341 0.0000e+00
     -0.662 5.0415e-19     7.9095     99.543      0.464   0.484145    -0.1913     -2.427 -1240.7455 1.0926e+03    -0.0044     -0.649     -0.941    27.1388 0.0000e+00
     -0.662 5.5457e-18     7.9087     99.540      0.475   0.495778    -0.1884     -2.426 -1240.7455 1.0944e+03    -0.0125     -0.649     -0.942    27.1431 0.0000e+00
     -0.662 6.1003e-17     7.9085     99.545      0.488   0.509489    -0.1889     -2.426 -1240.7455 1.0947e+03     0.0135     -0.650     -0.942    27.1470 0.0000e+00
     -0.662 6.7103e-16     7.9095     99.564      0.502   0.523105    -0.1876     -2.426 -1240.7455 1.0931e+03     0.0045     -0.649     -0.941    27.1505 0.0000e+00
     -0.662 7.3813e-15     7.9098     99.574      0.512   0.533585    -0.1830     -2.426 -1240.7455 1.0899e+03    -0.0300     -0.649     -0.941    27.1543 0.0000e+00
     -0.662 8.1194e-14     7.9090     99.571      0.488   0.509384    -0.1787     -2.426 -1240.7455 1.0857e+03    -0.0378     -0.649     -0.941    27.1585 0.0000e+00
     -0.662 8.9314e-13     7.9079     99.562      0.464   0.484135    -0.1822     -2.426 -1240.7455 1.0804e+03    -0.0589     -0.649     -0.941    27.1623 0.0000e+00
     -0.662 9.8245e-12     7.9065     99.550      0.462   0.481943    -0.1875     -2.426 -1240.7455 1.0749e+03    -0.0720     -0.649     -0.941    27.1661 0.0000e+00
     -0.662 1.0807e-10     7.9054     99.542      0.463   0.482887    -0.1967     -2.426 -1240.7455 1.0707e+03    -0.0130     -0.648     -0.940    27.1697 0.0000e+00
     -0.662 1.1888e-09     7.9042     99.532      0.475   0.495551    -0.2025     -2.426 -1240.7455 1.0686e+03     0.0437     -0.649     -0.941    27.1732 0.0000e+00
