* Sea-Bird SBE19plus  Data File:
* FileName = C:\DATA\060418_fcr50_0004.hex
* Software version 2.6.3.104 SB_Terminal.dll
* Temperature SN = 7809
* Conductivity SN = 7809
* System UpLoad Time = Jun 04 2018 16:28:26
* <ApplicationData>
* <Seaterm232>
* <SoftwareVersion>2.6.3.104</SoftwareVersion>
* <BuildDate>30-Jun-2017</BuildDate>
* </Seaterm232>
* </ApplicationData>
* cast   4 04 Jun 2018 14:38:52 samples 3383 to 4031, avg = 1, stop = mag switch
# nquan = 15
# nvalues = 381                         
# units = specified
# name 0 = depFM: Depth [fresh water, m]
# name 1 = dz/dtM: Descent Rate [m/s]
# name 2 = sbeox0Mg/L: Oxygen, SBE 43 [mg/l]
# name 3 = sbeox0PS: Oxygen, SBE 43 [% saturation]
# name 4 = specc: Specific Conductance [uS/cm]
# name 5 = c0uS/cm: Conductivity [uS/cm]
# name 6 = flECO-AFL: Fluorescence, WET Labs ECO-AFL/FL [mg/m^3]
# name 7 = ph: pH
# name 8 = orp: Oxidation Reduction Potential [mV]
# name 9 = par/sat/log: PAR/Logarithmic, Satlantic
# name 10 = turbWETntu0: Turbidity, WET Labs ECO [NTU]
# name 11 = prdM: Pressure, Strain Gauge [db]
# name 12 = prdE: Pressure, Strain Gauge [psi]
# name 13 = tv290C: Temperature [ITS-90, deg C]
# name 14 = flag:  0.000e+00
# span 0 =     -0.618,      3.762       
# span 1 =     -0.053,      0.205       
# span 2 =    -0.1404,    10.0796       
# span 3 =     -1.353,    110.852       
# span 4 =      0.484,    200.016       
# span 5 =   0.441361, 147.484610       
# span 6 =    -0.7378,     3.9368       
# span 7 =      5.439,      7.519       
# span 8 = -1240.7455,  1227.4868       
# span 9 = 4.4451e+00, 1.5611e+03       
# span 10 =    -1.3365,    19.0225      
# span 11 =     -0.606,      3.690      
# span 12 =     -0.880,      5.352      
# span 13 =    11.5298,    23.3876      
# span 14 = 0.0000e+00, 0.0000e+00      
# interval = seconds: 0.25
# start_time = Jun 04 2018 14:38:52 [Instrument's time stamp, header]
# bad_flag = -9.990e-29
# <Sensors count="9" >
#   <sensor Channel="1" >
#     <!-- Count, Temperature -->
#     <TemperatureSensor SensorID="58" >
#       <SerialNumber>7809</SerialNumber>
#       <CalibrationDate>09-Mar-18</CalibrationDate>
#       <A0>1.21093245e-003</A0>
#       <A1>2.84356597e-004</A1>
#       <A2>-1.94507398e-006</A2>
#       <A3>2.12806664e-007</A3>
#       <Slope>1.00000000</Slope>
#       <Offset>0.0000</Offset>
#     </TemperatureSensor>
#   </sensor>
#   <sensor Channel="2" >
#     <!-- Frequency 0, Conductivity -->
#     <ConductivitySensor SensorID="3" >
#       <SerialNumber>7809</SerialNumber>
#       <CalibrationDate>09-Mar-18</CalibrationDate>
#       <UseG_J>1</UseG_J>
#       <!-- Cell const and series R are applicable only for wide range sensors. -->
#       <SeriesR>0.0000</SeriesR>
#       <CellConst>2000.0000</CellConst>
#       <ConductivityType>0</ConductivityType>
#       <Coefficients equation="0" >
#         <A>0.00000000e+000</A>
#         <B>0.00000000e+000</B>
#         <C>0.00000000e+000</C>
#         <D>0.00000000e+000</D>
#         <M>0.0</M>
#         <CPcor>-9.57000000e-008</CPcor>
#       </Coefficients>
#       <Coefficients equation="1" >
#         <G>-1.00672082e+000</G>
#         <H>1.26906489e-001</H>
#         <I>-1.40584351e-004</I>
#         <J>2.47837121e-005</J>
#         <CPcor>-9.57000000e-008</CPcor>
#         <CTcor>3.2500e-006</CTcor>
#         <!-- WBOTC not applicable unless ConductivityType = 1. -->
#         <WBOTC>0.00000000e+000</WBOTC>
#       </Coefficients>
#       <Slope>1.00000000</Slope>
#       <Offset>0.00000</Offset>
#     </ConductivitySensor>
#   </sensor>
#   <sensor Channel="3" >
#     <!-- Count, Pressure, Strain Gauge -->
#     <PressureSensor SensorID="46" >
#       <SerialNumber>7809</SerialNumber>
#       <CalibrationDate>07-Mar-18</CalibrationDate>
#       <PA0>-4.08176359e-002</PA0>
#       <PA1>4.85188419e-004</PA1>
#       <PA2>-3.51168169e-012</PA2>
#       <PTEMPA0>-5.37806900e+001</PTEMPA0>
#       <PTEMPA1>5.36620721e+001</PTEMPA1>
#       <PTEMPA2>4.87214332e-002</PTEMPA2>
#       <PTCA0>5.25213435e+005</PTCA0>
#       <PTCA1>1.79532409e+000</PTCA1>
#       <PTCA2>-2.84353509e-001</PTCA2>
#       <PTCB0>2.51668750e+001</PTCB0>
#       <PTCB1>3.75000000e-004</PTCB1>
#       <PTCB2>0.00000000e+000</PTCB2>
#       <Offset>0.000000</Offset>
#     </PressureSensor>
#   </sensor>
#   <sensor Channel="4" >
#     <!-- A/D voltage 0, pH -->
#     <pH_Sensor SensorID="43" >
#       <SerialNumber>0363</SerialNumber>
#       <CalibrationDate>16-Mar-18</CalibrationDate>
#       <Slope>4.6194</Slope>
#       <Offset>2.5947</Offset>
#     </pH_Sensor>
#   </sensor>
#   <sensor Channel="5" >
#     <!-- A/D voltage 1, Oxidation Reduction Potential -->
#     <OxidationReductionPotentialSensor SensorID="41" >
#       <SerialNumber>0363</SerialNumber>
#       <CalibrationDate>16-Mar-18</CalibrationDate>
#       <B>2.499480</B>
#       <M>-0.496195</M>
#       <Offset>0.0</Offset>
#     </OxidationReductionPotentialSensor>
#   </sensor>
#   <sensor Channel="6" >
#     <!-- A/D voltage 2, Oxygen, SBE 43 -->
#     <OxygenSensor SensorID="38" >
#       <SerialNumber>0434</SerialNumber>
#       <CalibrationDate>13-Mar-18</CalibrationDate>
#       <Use2007Equation>1</Use2007Equation>
#       <CalibrationCoefficients equation="0" >
#         <!-- Coefficients for Owens-Millard equation. -->
#         <Boc>0.0000</Boc>
#         <Soc>0.0000e+000</Soc>
#         <offset>0.0000</offset>
#         <Pcor>0.00e+000</Pcor>
#         <Tcor>0.0000</Tcor>
#         <Tau>0.0</Tau>
#       </CalibrationCoefficients>
#       <CalibrationCoefficients equation="1" >
#         <!-- Coefficients for Sea-Bird equation - SBE calibration in 2007 and later. -->
#         <Soc>4.5718e-001</Soc>
#         <offset>-0.6113</offset>
#         <A>-4.0649e-003</A>
#         <B> 2.0945e-004</B>
#         <C>-3.3182e-006</C>
#         <D0> 2.5826e+000</D0>
#         <D1> 1.92634e-004</D1>
#         <D2>-4.64803e-002</D2>
#         <E> 3.6000e-002</E>
#         <Tau20> 1.2200</Tau20>
#         <H1>-3.3000e-002</H1>
#         <H2> 5.0000e+003</H2>
#         <H3> 1.4500e+003</H3>
#       </CalibrationCoefficients>
#     </OxygenSensor>
#   </sensor>
#   <sensor Channel="7" >
#     <!-- A/D voltage 3, PAR/Logarithmic, Satlantic -->
#     <PARLog_SatlanticSensor SensorID="76" >
#       <SerialNumber>1122</SerialNumber>
#       <CalibrationDate>22-Jun-2017</CalibrationDate>
#       <a0>9.6090e-001</a0>
#       <a1>8.0780e-001</a1>
#       <Im>1.3589e+000</Im>
#       <Multiplier>1.0000e+000</Multiplier>
#     </PARLog_SatlanticSensor>
#   </sensor>
#   <sensor Channel="8" >
#     <!-- A/D voltage 4, Fluorometer, WET Labs ECO-AFL/FL -->
#     <FluoroWetlabECO_AFL_FL_Sensor SensorID="20" >
#       <SerialNumber>FLNTURT-2496</SerialNumber>
#       <CalibrationDate>25-Jan-2017</CalibrationDate>
#       <ScaleFactor>5.30000000e+001</ScaleFactor>
#       <!-- Dark output -->
#       <Vblank>0.0560</Vblank>
#     </FluoroWetlabECO_AFL_FL_Sensor>
#   </sensor>
#   <sensor Channel="9" >
#     <!-- A/D voltage 5, Turbidity Meter, WET Labs, ECO-NTU -->
#     <TurbidityMeter SensorID="67" >
#       <SerialNumber>FLNTURT-2496</SerialNumber>
#       <CalibrationDate>25-Jan-2017</CalibrationDate>
#       <ScaleFactor>176.000000</ScaleFactor>
#       <!-- Dark output -->
#       <DarkVoltage>0.072000</DarkVoltage>
#     </TurbidityMeter>
#   </sensor>
# </Sensors>
# datcnv_date = Jun 04 2018 16:37:16, 7.26.7.114 [datcnv_vars = 14]
# datcnv_in = C:\DATA\060418_fcr20.hex C:\DATA\SBE19plusV2_7809.xmlcon
# datcnv_skipover = 0
# datcnv_ox_hysteresis_correction = yes
# datcnv_ox_tau_correction = yes
# filter_date = Jun 04 2018 16:37:47, 7.26.7.114
# filter_in = C:\DATA\060418_fcr20.cnv
# filter_low_pass_tc_A = 0.030
# filter_low_pass_tc_B = 0.150
# filter_low_pass_A_vars = prdM prdE tv290C
# filter_low_pass_B_vars = depFM dz/dtM sbeox0Mg/L sbeox0PS specc c0uS/cm flECO-AFL ph orp par/sat/log turbWETntu0
# alignctd_date = Jun 04 2018 16:38:15, 7.26.7.114
# alignctd_in = C:\DATA\060418_fcr20.cnv
# alignctd_adv = dz/dtM 1.000, sbeox0Mg/L 1.000, sbeox0PS 1.000, specc 1.000, c0uS/cm 1.000, flECO-AFL 1.000, ph 1.000, orp 1.000, turbWETntu0 1.000                                                                                 
# file_type = ascii
*END*
     -0.617 8.6917e-20     8.6760     96.520      0.544   0.495675    -0.1782      5.451 -1240.7455 1.5611e+03    -0.6564     -0.605     -0.877    20.5736 0.0000e+00
     -0.617 1.4905e-20     8.6766     96.528      0.531   0.484145    -0.1779      5.446 -1240.7455 6.5008e+02    -0.6647     -0.604     -0.877    20.5737 0.0000e+00
     -0.617 7.8392e-20     8.6766     96.532      0.544   0.495675    -0.1872      5.449 -1240.7455 1.4305e+02    -0.6473     -0.605     -0.878    20.5741 0.0000e+00
     -0.617 8.5454e-19     8.6768     96.537      0.558   0.508252    -0.1899      5.454 -1240.7455 7.3510e+01    -0.6601     -0.605     -0.877    20.5747 0.0000e+00
     -0.617 9.3992e-18     8.6783     96.557      0.559   0.509395    -0.1829      5.451 -1240.7455 5.0996e+01    -0.6973     -0.605     -0.878    20.5757 0.0000e+00
     -0.617 1.0339e-16     8.6789     96.567      0.559   0.509499    -0.1754      5.448 -1240.7455 4.8494e+01    -0.7012     -0.605     -0.877    20.5771 0.0000e+00
     -0.617 1.1373e-15     8.6779     96.559      0.559   0.509509    -0.1728      5.444 -1240.7455 5.4862e+01    -0.6458     -0.605     -0.878    20.5785 0.0000e+00
     -0.617 1.2510e-14     8.6769     96.549      0.559   0.509510    -0.1973      5.439 -1240.7455 6.3245e+01    -0.3640     -0.605     -0.877    20.5803 0.0000e+00
     -0.617 1.3761e-13     8.6774     96.555      0.559   0.509510    -0.2243      5.446 -1240.7455 6.6361e+01     0.1427     -0.605     -0.878    20.5824 0.0000e+00
     -0.617 1.5138e-12     8.6783     96.566      0.559   0.509510    -0.2230      5.459 -1240.7455 6.6408e+01     0.4154     -0.605     -0.878    20.5844 0.0000e+00
     -0.617 1.6651e-11     8.6782     96.566      0.559   0.509509    -0.2280      5.470 -1240.7455 7.5828e+01     0.3998     -0.605     -0.877    20.5858 0.0000e+00
     -0.617 1.8316e-10     8.6777     96.561      0.559   0.509499    -0.2294      5.478 -1240.7455 9.9837e+01     0.2593     -0.605     -0.878    20.5861 0.0000e+00
     -0.617 2.0148e-09     8.6777     96.561      0.559   0.509385    -0.2024      5.483 -1240.7455 1.6590e+02    -0.0017     -0.605     -0.878    20.5861 0.0000e+00
     -0.617 2.2163e-08     8.6782     96.567      0.557   0.508139    -0.1779      5.488 -1240.7455 2.1900e+02    -0.1917     -0.605     -0.878    20.5864 0.0000e+00
     -0.617 2.4379e-07     8.6794     96.580      0.542   0.494427    -0.1710      5.492 -1240.7455 1.7698e+02    -0.2374     -0.605     -0.878    20.5870 0.0000e+00
     -0.617 4.4695e-07     8.6805     96.591      0.516   0.470424    -0.1752      5.491 -1240.7455 1.2166e+02    -0.2494     -0.604     -0.877    20.5874 0.0000e+00
     -0.617 2.4379e-07     8.6805     96.590      0.518   0.471567    -0.1735      5.490 -1240.7455 1.0017e+02    -0.2450     -0.605     -0.878    20.5876 0.0000e+00
     -0.617 2.2146e-08     8.6799     96.584      0.558   0.508241    -0.1685      5.493 -1240.7455 8.4292e+01    -0.2150     -0.605     -0.878    20.5881 0.0000e+00
     -0.617 1.8315e-09     8.6804     96.591      0.585   0.533378    -0.1702      5.497 -1240.7455 8.0525e+01    -0.2226     -0.605     -0.877    20.5876 0.0000e+00
     -0.617 -1.166e-12     8.6808     96.597      0.573   0.521848    -0.1662      5.500 -1240.7455 8.1434e+01    -0.2147     -0.605     -0.878    20.5862 0.0000e+00
     -0.617 -1.283e-11     8.6792     96.580      0.544   0.495653    -0.1667      5.501 -1240.7455 7.8425e+01    -0.1192     -0.606     -0.879    20.5860 0.0000e+00
     -0.617 -1.411e-10     8.6767     96.554      0.516   0.470308    -0.1667      5.501 -1240.7455 7.3294e+01    -0.0442     -0.605     -0.878    20.5867 0.0000e+00
     -0.617 -1.552e-09     8.6759     96.547      0.515   0.469052    -0.1656      5.499 -1240.7455 6.7429e+01    -0.0405     -0.606     -0.879    20.5876 0.0000e+00
     -0.617 -1.707e-08     8.6757     96.545      0.527   0.480458    -0.1716      5.501 -1240.7455 6.1843e+01    -0.0450     -0.605     -0.878    20.5885 0.0000e+00
     -0.618 -1.878e-07     8.6751     96.537      0.528   0.481400    -0.1662      5.506 -1240.7455 5.7937e+01    -0.0677     -0.606     -0.879    20.5894 0.0000e+00
     -0.618 -1.878e-07     8.6749     96.533      0.527   0.480446    -0.1652      5.512 -1240.7455 5.4452e+01    -0.1308     -0.606     -0.879    20.5901 0.0000e+00
     -0.618 -1.707e-08     8.6754     96.537      0.515   0.468926    -0.1782      5.516 -1240.7455 5.0988e+01    -0.1978     -0.606     -0.879    20.5907 0.0000e+00
     -0.618 -1.552e-09     8.6755     96.538      0.515   0.468927    -0.1843      5.517 -1240.7455 4.9164e+01    -0.2383     -0.606     -0.879    20.5911 0.0000e+00
     -0.618 -1.411e-10     8.6763     96.548      0.527   0.480457    -0.1838      5.518 -1240.7455 5.1867e+01    -0.2839     -0.606     -0.878    20.5904 0.0000e+00
     -0.617 -1.283e-11     8.6773     96.559      0.528   0.481513    -0.1815      5.518 -1240.7455 6.5463e+01    -0.3837     -0.605     -0.878    20.5894 0.0000e+00
     -0.617 -1.166e-12     8.6773     96.559      0.528   0.481703    -0.1839      5.517 -1240.7455 8.7037e+01    -0.4676     -0.605     -0.878    20.5887 0.0000e+00
     -0.618 -1.060e-13     8.6773     96.560      0.529   0.482751    -0.1949      5.517 -1240.7455 1.0311e+02    -0.4745     -0.606     -0.879    20.5883 0.0000e+00
     -0.618 -9.640e-15     8.6780     96.569      0.542   0.494177    -0.1951      5.518 -1240.7455 1.0994e+02    -0.4364     -0.606     -0.878    20.5881 0.0000e+00
     -0.618 -8.760e-16     8.6787     96.576      0.541   0.493035    -0.1861      5.520 -1240.7455 1.0958e+02    -0.4038     -0.606     -0.878    20.5880 0.0000e+00
     -0.618 -7.965e-17     8.6789     96.578      0.515   0.468936    -0.1880      5.521 -1240.7455 1.0444e+02    -0.4163     -0.606     -0.879    20.5886 0.0000e+00
     -0.618 -7.240e-18     8.6799     96.588      0.501   0.456453    -0.1902      5.521 -1240.7455 9.8249e+01    -0.4351     -0.606     -0.878    20.5893 0.0000e+00
     -0.618 -6.585e-19     8.6809     96.595      0.515   0.468927    -0.1850      5.521 -1240.7455 9.1276e+01    -0.3870     -0.606     -0.879    20.5900 0.0000e+00
     -0.618 -5.985e-20     8.6794     96.574      0.541   0.492930    -0.1803      5.521 -1240.7455 8.4387e+01    -0.2918     -0.606     -0.879    20.5901 0.0000e+00
     -0.618 -5.440e-21     8.6770     96.544      0.541   0.493033    -0.1795      5.523 -1240.7455 7.9402e+01    -0.2298     -0.606     -0.879    20.5898 0.0000e+00
     -0.618 -4.900e-22     8.6768     96.541      0.516   0.470173    -0.1844      5.524 -1240.7455 7.5641e+01    -0.2177     -0.606     -0.878    20.5899 0.0000e+00
     -0.618 6.1479e-24     8.6786     96.563      0.516   0.470175    -0.1842      5.524 -1240.7455 7.0721e+01    -0.2377     -0.606     -0.879    20.5874 0.0000e+00
     -0.618 5.5810e-22     8.6805     96.586      0.541   0.493054    -0.1769      5.526 -1240.7455 6.4229e+01    -0.2886     -0.606     -0.878    20.5838 0.0000e+00
     -0.618 6.1837e-21     8.6811     96.594      0.541   0.493159    -0.1698      5.529 -1240.7455 5.6977e+01    -0.3138     -0.606     -0.878    20.5822 0.0000e+00
     -0.618 6.8025e-20     8.6808     96.590      0.517   0.471442    -0.1632      5.532 -1240.7455 4.9631e+01    -0.2680     -0.606     -0.879    20.5822 0.0000e+00
     -0.617 7.4827e-19     8.6806     96.588      0.531   0.484124    -0.1701      5.535 -1240.7455 4.5701e+01    -0.2233     -0.605     -0.878    20.5832 0.0000e+00
     -0.617 8.2310e-18     8.6814     96.599      0.570   0.519667    -0.1881      5.537 -1240.7455 4.5187e+01    -0.2304     -0.605     -0.878    20.5843 0.0000e+00
     -0.618 9.0541e-17     8.6828     96.616      0.571   0.520714    -0.1973      5.536 -1240.7455 4.3444e+01    -0.2322     -0.606     -0.879    20.5849 0.0000e+00
     -0.618 9.9595e-16     8.6831     96.621      0.545   0.496786    -0.1894      5.535 -1240.7455 4.2026e+01    -0.1837     -0.606     -0.879    20.5845 0.0000e+00
     -0.618 1.0955e-14     8.6820     96.611      0.531   0.484008    -0.1764      5.537 -1240.7455 4.3946e+01    -0.1631     -0.606     -0.879    20.5846 0.0000e+00
     -0.618 1.2051e-13     8.6803     96.592      0.541   0.493043    -0.1772      5.542 -1240.7455 4.6190e+01    -0.2581     -0.606     -0.879    20.5857 0.0000e+00
     -0.618 1.3256e-12     8.6793     96.581      0.526   0.479200    -0.1805      5.548 -1240.7455 4.7630e+01    -0.3866     -0.606     -0.879    20.5869 0.0000e+00
     -0.618 1.4582e-11     8.6793     96.579      0.486   0.443458    -0.1701      5.551 -1240.7455 5.0498e+01    -0.4345     -0.606     -0.880    20.5881 0.0000e+00
     -0.618 1.6040e-10     8.6785     96.569      0.484   0.441361    -0.1627      5.552 -1240.7455 5.5873e+01    -0.4397     -0.606     -0.879    20.5892 0.0000e+00
     -0.618 1.7644e-09     8.6766     96.549      0.498   0.453845    -0.1644      5.555 -1240.7455 6.1201e+01    -0.3886     -0.606     -0.879    20.5898 0.0000e+00
     -0.618 1.9408e-08     8.6752     96.534      0.513   0.467571    -0.1639      5.557 -1240.7452 5.6550e+01    -0.2741     -0.606     -0.879    20.5889 0.0000e+00
     -0.618 2.1349e-07     8.6757     96.542      0.527   0.480504    -0.1745      5.560 -1240.7417 4.4710e+01    -0.2156     -0.605     -0.878    20.5877 0.0000e+00
     -0.618      0.000     8.6777     96.566      0.530   0.483393    -0.1914      5.563 -1240.7032 4.1534e+01    -0.2308     -0.606     -0.879    20.5872 0.0000e+00
     -0.617      0.000     8.6799     96.592      0.551   0.502499    -0.1928      5.564 -1240.2799 4.7238e+01    -0.2446     -0.605     -0.878    20.5878 0.0000e+00
     -0.617      0.000     8.6818     96.615      0.641   0.584689    -0.1922      5.571 -1235.6244 5.3545e+01    -0.2291     -0.605     -0.878    20.5883 0.0000e+00
     -0.617      0.003     8.6802     96.611      1.478   1.350327    -0.1842      5.639 -1184.4133 5.9771e+01    -0.2572     -0.606     -0.879    20.5895 0.0000e+00
     -0.617      0.014     8.6635     96.592      5.800   5.320707    -0.1693      5.805  -621.0910 6.9923e+01    -0.3102     -0.605     -0.878    20.5898 0.0000e+00
     -0.617      0.035     8.6092     96.599     12.577  11.609346    -0.1865      6.005   459.1321 8.3350e+01    -0.3198     -0.605     -0.878    20.5916 0.0000e+00
     -0.616      0.060     8.5210     96.623     16.398  15.281675    -0.3368      6.190  1121.5649 9.5258e+01    -0.5566     -0.605     -0.878    20.5899 0.0000e+00
     -0.606      0.079     8.4404     96.643     16.968  15.972090    -0.5899      6.377  1227.4868 1.0309e+02    -1.0379     -0.605     -0.878    20.5921 0.0000e+00
     -0.572      0.086     8.3877     96.662     16.902  16.022826    -0.7288      6.566  1217.5663 1.0884e+02    -1.3170     -0.570     -0.827    20.5869 0.0000e+00
     -0.521      0.086     8.3542     96.673     19.481  18.560617    -0.7378      6.770  1001.6161 1.1899e+02    -1.3365     -0.502     -0.728    20.8973 0.0000e+00
     -0.485      0.083     8.3337     96.678     25.519  24.376003    -0.5617      7.020   595.5275 1.3295e+02    -1.0908     -0.463     -0.671    21.6019 0.0000e+00
     -0.476      0.080     8.3218     96.690     30.067  28.760746    -0.2354      7.273   357.1931 1.4119e+02    -0.6653     -0.463     -0.670    22.1299 0.0000e+00
