* Sea-Bird SBE19plus  Data File:
* FileName = C:\DATA\061418_bvr50_0005.hex
* Software version 2.6.3.104 SB_Terminal.dll
* Temperature SN = 7809
* Conductivity SN = 7809
* System UpLoad Time = Jun 14 2018 16:25:56
* <ApplicationData>
* <Seaterm232>
* <SoftwareVersion>2.6.3.104</SoftwareVersion>
* <BuildDate>30-Jun-2017</BuildDate>
* </Seaterm232>
* </ApplicationData>
* cast   5 11 Jun 2018 15:04:58 samples 1567 to 2014, avg = 1, stop = mag switch
# nquan = 15
# nvalues = 262                         
# units = specified
# name 0 = depFM: Depth [fresh water, m]
# name 1 = dz/dtM: Descent Rate [m/s]
# name 2 = sbeox0Mg/L: Oxygen, SBE 43 [mg/l]
# name 3 = sbeox0PS: Oxygen, SBE 43 [% saturation]
# name 4 = specc: Specific Conductance [uS/cm]
# name 5 = c0uS/cm: Conductivity [uS/cm]
# name 6 = flECO-AFL: Fluorescence, WET Labs ECO-AFL/FL [mg/m^3]
# name 7 = ph: pH
# name 8 = orp: Oxidation Reduction Potential [mV]
# name 9 = par/sat/log: PAR/Logarithmic, Satlantic
# name 10 = turbWETntu0: Turbidity, WET Labs ECO [NTU]
# name 11 = prdM: Pressure, Strain Gauge [db]
# name 12 = prdE: Pressure, Strain Gauge [psi]
# name 13 = tv290C: Temperature [ITS-90, deg C]
# name 14 = flag:  0.000e+00
# span 0 =     -0.592,      7.390       
# span 1 =     -0.001,      0.300       
# span 2 =     6.6057,     8.8929       
# span 3 =     59.057,     90.701       
# span 4 =      0.765,     43.341       
# span 5 =   0.705586,  31.775032       
# span 6 =    -0.1966,     3.7352       
# span 7 =      6.358,      8.061       
# span 8 =   259.9669,   482.6149       
# span 9 = 3.1176e-01, 3.2709e+02       
# span 10 =    -0.2943,     8.0072      
# span 11 =     -0.581,      7.248      
# span 12 =     -0.843,     10.512      
# span 13 =    10.2859,    24.8582      
# span 14 = 0.0000e+00, 0.0000e+00      
# interval = seconds: 0.25
# start_time = Jun 11 2018 15:04:58 [Instrument's time stamp, header]
# bad_flag = -9.990e-29
# <Sensors count="9" >
#   <sensor Channel="1" >
#     <!-- Count, Temperature -->
#     <TemperatureSensor SensorID="58" >
#       <SerialNumber>7809</SerialNumber>
#       <CalibrationDate>09-Mar-18</CalibrationDate>
#       <A0>1.21093245e-003</A0>
#       <A1>2.84356597e-004</A1>
#       <A2>-1.94507398e-006</A2>
#       <A3>2.12806664e-007</A3>
#       <Slope>1.00000000</Slope>
#       <Offset>0.0000</Offset>
#     </TemperatureSensor>
#   </sensor>
#   <sensor Channel="2" >
#     <!-- Frequency 0, Conductivity -->
#     <ConductivitySensor SensorID="3" >
#       <SerialNumber>7809</SerialNumber>
#       <CalibrationDate>09-Mar-18</CalibrationDate>
#       <UseG_J>1</UseG_J>
#       <!-- Cell const and series R are applicable only for wide range sensors. -->
#       <SeriesR>0.0000</SeriesR>
#       <CellConst>2000.0000</CellConst>
#       <ConductivityType>0</ConductivityType>
#       <Coefficients equation="0" >
#         <A>0.00000000e+000</A>
#         <B>0.00000000e+000</B>
#         <C>0.00000000e+000</C>
#         <D>0.00000000e+000</D>
#         <M>0.0</M>
#         <CPcor>-9.57000000e-008</CPcor>
#       </Coefficients>
#       <Coefficients equation="1" >
#         <G>-1.00672082e+000</G>
#         <H>1.26906489e-001</H>
#         <I>-1.40584351e-004</I>
#         <J>2.47837121e-005</J>
#         <CPcor>-9.57000000e-008</CPcor>
#         <CTcor>3.2500e-006</CTcor>
#         <!-- WBOTC not applicable unless ConductivityType = 1. -->
#         <WBOTC>0.00000000e+000</WBOTC>
#       </Coefficients>
#       <Slope>1.00000000</Slope>
#       <Offset>0.00000</Offset>
#     </ConductivitySensor>
#   </sensor>
#   <sensor Channel="3" >
#     <!-- Count, Pressure, Strain Gauge -->
#     <PressureSensor SensorID="46" >
#       <SerialNumber>7809</SerialNumber>
#       <CalibrationDate>07-Mar-18</CalibrationDate>
#       <PA0>-4.08176359e-002</PA0>
#       <PA1>4.85188419e-004</PA1>
#       <PA2>-3.51168169e-012</PA2>
#       <PTEMPA0>-5.37806900e+001</PTEMPA0>
#       <PTEMPA1>5.36620721e+001</PTEMPA1>
#       <PTEMPA2>4.87214332e-002</PTEMPA2>
#       <PTCA0>5.25213435e+005</PTCA0>
#       <PTCA1>1.79532409e+000</PTCA1>
#       <PTCA2>-2.84353509e-001</PTCA2>
#       <PTCB0>2.51668750e+001</PTCB0>
#       <PTCB1>3.75000000e-004</PTCB1>
#       <PTCB2>0.00000000e+000</PTCB2>
#       <Offset>0.000000</Offset>
#     </PressureSensor>
#   </sensor>
#   <sensor Channel="4" >
#     <!-- A/D voltage 0, pH -->
#     <pH_Sensor SensorID="43" >
#       <SerialNumber>0363</SerialNumber>
#       <CalibrationDate>16-Mar-18</CalibrationDate>
#       <Slope>4.6194</Slope>
#       <Offset>2.5947</Offset>
#     </pH_Sensor>
#   </sensor>
#   <sensor Channel="5" >
#     <!-- A/D voltage 1, Oxidation Reduction Potential -->
#     <OxidationReductionPotentialSensor SensorID="41" >
#       <SerialNumber>0363</SerialNumber>
#       <CalibrationDate>16-Mar-18</CalibrationDate>
#       <B>2.499480</B>
#       <M>-0.496195</M>
#       <Offset>0.0</Offset>
#     </OxidationReductionPotentialSensor>
#   </sensor>
#   <sensor Channel="6" >
#     <!-- A/D voltage 2, Oxygen, SBE 43 -->
#     <OxygenSensor SensorID="38" >
#       <SerialNumber>0434</SerialNumber>
#       <CalibrationDate>13-Mar-18</CalibrationDate>
#       <Use2007Equation>1</Use2007Equation>
#       <CalibrationCoefficients equation="0" >
#         <!-- Coefficients for Owens-Millard equation. -->
#         <Boc>0.0000</Boc>
#         <Soc>0.0000e+000</Soc>
#         <offset>0.0000</offset>
#         <Pcor>0.00e+000</Pcor>
#         <Tcor>0.0000</Tcor>
#         <Tau>0.0</Tau>
#       </CalibrationCoefficients>
#       <CalibrationCoefficients equation="1" >
#         <!-- Coefficients for Sea-Bird equation - SBE calibration in 2007 and later. -->
#         <Soc>4.5718e-001</Soc>
#         <offset>-0.6113</offset>
#         <A>-4.0649e-003</A>
#         <B> 2.0945e-004</B>
#         <C>-3.3182e-006</C>
#         <D0> 2.5826e+000</D0>
#         <D1> 1.92634e-004</D1>
#         <D2>-4.64803e-002</D2>
#         <E> 3.6000e-002</E>
#         <Tau20> 1.2200</Tau20>
#         <H1>-3.3000e-002</H1>
#         <H2> 5.0000e+003</H2>
#         <H3> 1.4500e+003</H3>
#       </CalibrationCoefficients>
#     </OxygenSensor>
#   </sensor>
#   <sensor Channel="7" >
#     <!-- A/D voltage 3, PAR/Logarithmic, Satlantic -->
#     <PARLog_SatlanticSensor SensorID="76" >
#       <SerialNumber>1122</SerialNumber>
#       <CalibrationDate>22-Jun-2017</CalibrationDate>
#       <a0>9.6090e-001</a0>
#       <a1>8.0780e-001</a1>
#       <Im>1.3589e+000</Im>
#       <Multiplier>1.0000e+000</Multiplier>
#     </PARLog_SatlanticSensor>
#   </sensor>
#   <sensor Channel="8" >
#     <!-- A/D voltage 4, Fluorometer, WET Labs ECO-AFL/FL -->
#     <FluoroWetlabECO_AFL_FL_Sensor SensorID="20" >
#       <SerialNumber>FLNTURT-2496</SerialNumber>
#       <CalibrationDate>25-Jan-2017</CalibrationDate>
#       <ScaleFactor>5.30000000e+001</ScaleFactor>
#       <!-- Dark output -->
#       <Vblank>0.0560</Vblank>
#     </FluoroWetlabECO_AFL_FL_Sensor>
#   </sensor>
#   <sensor Channel="9" >
#     <!-- A/D voltage 5, Turbidity Meter, WET Labs, ECO-NTU -->
#     <TurbidityMeter SensorID="67" >
#       <SerialNumber>FLNTURT-2496</SerialNumber>
#       <CalibrationDate>25-Jan-2017</CalibrationDate>
#       <ScaleFactor>176.000000</ScaleFactor>
#       <!-- Dark output -->
#       <DarkVoltage>0.072000</DarkVoltage>
#     </TurbidityMeter>
#   </sensor>
# </Sensors>
# datcnv_date = Jun 14 2018 16:42:55, 7.26.7.114 [datcnv_vars = 14]
# datcnv_in = C:\DATA\061118_fcr45.hex C:\DATA\SBE19plusV2_7809.xmlcon
# datcnv_skipover = 0
# datcnv_ox_hysteresis_correction = yes
# datcnv_ox_tau_correction = yes
# filter_date = Jun 14 2018 16:44:33, 7.26.7.114
# filter_in = C:\DATA\061118_fcr45.cnv
# filter_low_pass_tc_A = 0.030
# filter_low_pass_tc_B = 0.150
# filter_low_pass_A_vars = prdM prdE tv290C
# filter_low_pass_B_vars = depFM dz/dtM sbeox0Mg/L sbeox0PS specc c0uS/cm flECO-AFL ph orp par/sat/log turbWETntu0
# alignctd_date = Jun 14 2018 16:45:24, 7.26.7.114
# alignctd_in = C:\DATA\061118_fcr45.cnv
# alignctd_adv = dz/dtM 1.000, sbeox0Mg/L 1.000, sbeox0PS 1.000, specc 1.000, c0uS/cm 1.000, flECO-AFL 1.000, ph 1.000, orp 1.000, turbWETntu0 1.000                                                                                 
# file_type = ascii
*END*
     -0.591 -8.201e-21     7.3378     82.514      0.793   0.731584    -0.1755      6.360   261.5845 2.0521e+02    -0.0024     -0.580     -0.841    21.1230 0.0000e+00
     -0.591 -9.021e-20     7.3368     82.504      0.779   0.718787    -0.1830      6.360   261.0404 2.0930e+02     0.0092     -0.580     -0.841    21.1235 0.0000e+00
     -0.591 -9.923e-19     7.3380     82.518      0.765   0.706147    -0.1819      6.360   260.3943 2.1266e+02     0.0072     -0.580     -0.842    21.1238 0.0000e+00
     -0.591 -1.092e-17     7.3406     82.548      0.765   0.705586    -0.1807      6.360   259.9669 2.1272e+02    -0.0563     -0.579     -0.841    21.1240 0.0000e+00
     -0.591 -1.201e-16     7.3393     82.534      0.772   0.712011    -0.1869      6.360   260.0027 2.0996e+02    -0.1492     -0.580     -0.840    21.1242 0.0000e+00
     -0.591 -1.321e-15     7.3366     82.503      0.850   0.783828    -0.1922      6.360   260.5691 2.0436e+02    -0.1998     -0.580     -0.842    21.1246 0.0000e+00
     -0.591 -1.453e-14     7.3347     82.482      1.088   1.003205    -0.1900      6.360   261.7383 1.9398e+02    -0.2108     -0.580     -0.841    21.1251 0.0000e+00
     -0.591 -1.598e-13     7.3332     82.466      1.379   1.271837    -0.1873      6.358   265.1056 1.8789e+02    -0.2215     -0.580     -0.841    21.1253 0.0000e+00
     -0.592 -2.930e-13     7.3329     82.463      1.552   1.431875    -0.1787      6.358   269.5343 1.9256e+02    -0.2067     -0.581     -0.842    21.1255 0.0000e+00
     -0.592 -1.598e-13     7.3339     82.474      1.741   1.606517    -0.1681      6.358   271.2335 1.9524e+02    -0.1841     -0.580     -0.842    21.1257 0.0000e+00
     -0.591 -1.453e-14     7.3356     82.494      2.086   1.924862    -0.1694      6.359   270.5935 1.9099e+02    -0.2236     -0.580     -0.841    21.1261 0.0000e+00
     -0.591 -1.321e-15     7.3363     82.503      2.425   2.237006    -0.1754      6.361   269.3680 1.8547e+02    -0.2569     -0.580     -0.841    21.1264 0.0000e+00
     -0.591 -1.215e-16     7.3352     82.491      2.533   2.336620    -0.1774      6.361   267.4292 1.8259e+02    -0.2200     -0.580     -0.842    21.1265 0.0000e+00
     -0.591 -2.658e-17     7.3336     82.474      2.361   2.178031    -0.1745      6.362   265.1341 1.8385e+02    -0.1749     -0.580     -0.841    21.1269 0.0000e+00
     -0.591 -1.734e-16     7.3334     82.472      2.065   1.904957    -0.1773      6.364   264.0744 1.8662e+02    -0.1684     -0.580     -0.842    21.1273 0.0000e+00
     -0.591 -1.896e-15     7.3336     82.475      1.841   1.698406    -0.1936      6.365   264.7689 1.8797e+02    -0.2027     -0.580     -0.841    21.1275 0.0000e+00
     -0.592 -2.086e-14     7.3321     82.459      1.716   1.583120    -0.1966      6.366   266.1310 1.8864e+02    -0.2541     -0.580     -0.842    21.1277 0.0000e+00
     -0.592 -2.294e-13     7.3305     82.441      1.585   1.462269    -0.1762      6.366   267.7230 1.9024e+02    -0.2716     -0.581     -0.842    21.1283 0.0000e+00
     -0.592 -2.524e-12     7.3310     82.448      1.426   1.315258    -0.1672      6.365   269.6498 1.9219e+02    -0.2614     -0.580     -0.841    21.1284 0.0000e+00
     -0.592 -2.776e-11     7.3338     82.479      1.302   1.200745    -0.1809      6.366   271.2733 1.9356e+02    -0.2229     -0.580     -0.842    21.1286 0.0000e+00
     -0.592 -3.054e-10     7.3380     82.526      1.253   1.155745    -0.1943      6.367   272.2103 1.9322e+02    -0.1722     -0.580     -0.842    21.1291 0.0000e+00
     -0.592 -3.359e-09     7.3410     82.561      1.248   1.151643    -0.1917      6.367   272.8047 1.9341e+02    -0.1976     -0.580     -0.842    21.1295 0.0000e+00
     -0.592 -3.695e-08     7.3429     82.582      1.248   1.151158    -0.1766      6.367   273.5559 1.9680e+02    -0.2554     -0.580     -0.842    21.1298 0.0000e+00
     -0.592 -4.064e-07     7.3458     82.615      1.246   1.149876    -0.1681      6.368   274.9260 2.0034e+02    -0.2308     -0.580     -0.841    21.1302 0.0000e+00
     -0.592     -0.000     7.3481     82.642      1.231   1.136141    -0.1720      6.368   276.2929 2.0010e+02    -0.1433     -0.580     -0.842    21.1304 0.0000e+00
     -0.592     -0.000     7.3477     82.638      1.205   1.111908    -0.1780      6.367   276.7472 1.9798e+02    -0.1136     -0.580     -0.842    21.1304 0.0000e+00
     -0.592     -0.001     7.3452     82.611      1.203   1.110536    -0.1759      6.367   276.8061 1.9793e+02    -0.1759     -0.580     -0.841    21.1310 0.0000e+00
     -0.592     -0.001     7.3431     82.588      1.213   1.119560    -0.1644      6.367   277.3485 1.9878e+02    -0.2252     -0.581     -0.842    21.1314 0.0000e+00
     -0.592     -0.000     7.3432     82.589      1.186   1.094184    -0.1584      6.368   278.2283 1.9813e+02    -0.2527     -0.581     -0.843    21.1314 0.0000e+00
     -0.592 -1.847e-08     7.3444     82.603      1.146   1.057374    -0.1682      6.369   278.9261 1.9781e+02    -0.2937     -0.581     -0.843    21.1316 0.0000e+00
     -0.592 -2.032e-07     7.3454     82.614      1.144   1.054971    -0.1816      6.369   279.2467 2.0036e+02    -0.2943     -0.581     -0.843    21.1319 0.0000e+00
     -0.592 -2.032e-07     7.3462     82.624      1.155   1.065129    -0.1822      6.369   279.4368 2.0571e+02    -0.2899     -0.581     -0.843    21.1321 0.0000e+00
     -0.592 -1.847e-08     7.3464     82.627      1.142   1.053371    -0.1762      6.369   279.9349 2.1271e+02    -0.2723     -0.581     -0.842    21.1325 0.0000e+00
     -0.592 -1.680e-09     7.3458     82.620      1.127   1.039629    -0.1734      6.369   280.6232 2.1996e+02    -0.2339     -0.581     -0.843    21.1328 0.0000e+00
     -0.592 -1.527e-10     7.3448     82.609      1.112   1.025803    -0.1769      6.369   281.1329 2.2515e+02    -0.2524     -0.580     -0.842    21.1331 0.0000e+00
     -0.592 -1.388e-11     7.3429     82.588      1.098   1.013027    -0.1814      6.369   281.6234 2.2676e+02    -0.2522     -0.581     -0.842    21.1333 0.0000e+00
     -0.592 -1.262e-12     7.3402     82.558      1.097   1.011980    -0.1805      6.369   282.4249 2.2500e+02    -0.2313     -0.580     -0.842    21.1335 0.0000e+00
     -0.592 -1.147e-13     7.3373     82.527      1.098   1.013144    -0.1842      6.369   283.2522 2.2215e+02    -0.2740     -0.581     -0.842    21.1338 0.0000e+00
     -0.592 -1.043e-14     7.3358     82.509      1.113   1.027107    -0.1809      6.370   283.8829 2.2192e+02    -0.2804     -0.581     -0.842    21.1340 0.0000e+00
     -0.592 -9.480e-16     7.3359     82.510      1.142   1.053978    -0.1683      6.371   284.5439 2.2428e+02    -0.2166     -0.581     -0.842    21.1343 0.0000e+00
     -0.592 -8.620e-17     7.3362     82.515      1.175   1.084384    -0.1695      6.371   285.1353 2.2555e+02    -0.2046     -0.581     -0.842    21.1344 0.0000e+00
     -0.592 -7.835e-18     7.3360     82.513      1.236   1.141090    -0.1771      6.370   286.0438 2.2425e+02    -0.2270     -0.581     -0.842    21.1347 0.0000e+00
     -0.592 -7.120e-19     7.3347     82.498      1.335   1.232291    -0.1777      6.370   288.3006 2.1737e+02    -0.2127     -0.580     -0.842    21.1350 0.0000e+00
     -0.592 -6.475e-20     7.3338     82.489      1.408   1.299296    -0.1765      6.370   292.8048 2.0313e+02    -0.2145     -0.581     -0.843    21.1353 0.0000e+00
     -0.592 -5.885e-21     7.3343     82.495      1.427   1.317097    -0.1811      6.369   298.4300 1.9121e+02    -0.2189     -0.580     -0.842    21.1357 0.0000e+00
     -0.592 -5.350e-22     7.3353     82.507      1.431   1.320700    -0.1876      6.369   303.2286 1.8815e+02    -0.2053     -0.581     -0.843    21.1358 0.0000e+00
     -0.592 -4.865e-23     7.3358     82.512      1.455   1.342855    -0.1899      6.368   311.0742 1.8860e+02    -0.2027     -0.581     -0.843    21.1359 0.0000e+00
     -0.592 -4.422e-24     7.3344     82.497      1.511   1.394734    -0.1824      6.367   322.2232 1.8822e+02    -0.1866     -0.581     -0.842    21.1361 0.0000e+00
     -0.592 -3.959e-25     7.3331     82.482      1.561   1.440644    -0.1694      6.369   329.0172 1.8702e+02    -0.1945     -0.580     -0.842    21.1365 0.0000e+00
     -0.592 3.0823e-26     7.3321     82.473      1.576   1.454054    -0.1705      6.373   331.6161 1.8627e+02    -0.2369     -0.581     -0.843    21.1368 0.0000e+00
     -0.592 7.3777e-25     7.3311     82.462      1.687   1.556867    -0.1777      6.375   333.2556 1.8543e+02    -0.2409     -0.581     -0.842    21.1369 0.0000e+00
     -0.592 8.1518e-24     7.3299     82.449      2.015   1.859346    -0.1738      6.377   332.5791 1.8441e+02    -0.2131     -0.580     -0.842    21.1372 0.0000e+00
     -0.592 8.9673e-23     7.3281     82.430      2.378   2.194174    -0.1694      6.379   329.8021 1.8430e+02    -0.2057     -0.581     -0.842    21.1374 0.0000e+00
     -0.592 9.8640e-22     7.3271     82.417      2.501   2.307592    -0.1703      6.380   329.6212 1.8535e+02    -0.2126     -0.580     -0.842    21.1377 0.0000e+00
     -0.592 1.0850e-20     7.3281     82.430      2.333   2.152587    -0.1756      6.378   334.3496 1.8915e+02    -0.2352     -0.581     -0.843    21.1381 0.0000e+00
     -0.592 1.1935e-19     7.3303     82.455      2.065   1.905454    -0.1875      6.376   339.9957 1.9529e+02    -0.2657     -0.580     -0.842    21.1384 0.0000e+00
     -0.592 1.3129e-18     7.3322     82.477      1.874   1.729357    -0.1949      6.375   344.6287 1.9897e+02    -0.2453     -0.581     -0.842    21.1386 0.0000e+00
     -0.592 1.4442e-17     7.3336     82.493      1.812   1.672230    -0.1914      6.370   368.6852 1.9809e+02    -0.2019     -0.581     -0.843    21.1389 0.0000e+00
     -0.592 1.5886e-16     7.3340     82.498      1.797   1.658647    -0.1817      6.363   411.8922 1.9396e+02    -0.1991     -0.581     -0.843    21.1392 0.0000e+00
     -0.592 1.7475e-15     7.3336     82.494      1.696   1.565128    -0.1706      6.364   433.6597 1.8996e+02    -0.2118     -0.581     -0.842    21.1394 0.0000e+00
     -0.592 1.9222e-14     7.3334     82.493      1.549   1.429309    -0.1664      6.373   433.6399 1.9222e+02    -0.2325     -0.581     -0.843    21.1398 0.0000e+00
     -0.592 2.1144e-13     7.3344     82.504      1.461   1.348183    -0.1767      6.379   432.9904 1.9793e+02    -0.2664     -0.581     -0.842    21.1401 0.0000e+00
     -0.592 2.3259e-12     7.3354     82.515      1.457   1.345214    -0.1857      6.382   433.2928 1.9873e+02    -0.2251     -0.581     -0.843    21.1406 0.0000e+00
     -0.592 2.5585e-11     7.3359     82.522      1.509   1.393410    -0.1839      6.382   441.7693 1.9391e+02    -0.0994     -0.581     -0.842    21.1409 0.0000e+00
     -0.592 2.8143e-10     7.3365     82.529      1.542   1.423602    -0.1814      6.379   458.6465 1.8673e+02    -0.0275     -0.580     -0.842    21.1412 0.0000e+00
     -0.592 3.0957e-09     7.3368     82.532      1.510   1.393188    -0.1739      6.377   471.3841 1.7852e+02     0.0026     -0.581     -0.842    21.1414 0.0000e+00
     -0.592 3.4053e-08     7.3378     82.545      1.455   1.342751    -0.1666      6.377   477.7327 1.6870e+02     0.0511     -0.581     -0.842    21.1418 0.0000e+00
     -0.592 3.7459e-07     7.3388     82.557      1.432   1.321087    -0.1671      6.379   481.1166 1.5839e+02     0.0391     -0.580     -0.842    21.1418 0.0000e+00
