* Sea-Bird SBE19plus  Data File:
* FileName = C:\DATA\061418_bvr50_0004.hex
* Software version 2.6.3.104 SB_Terminal.dll
* Temperature SN = 7809
* Conductivity SN = 7809
* System UpLoad Time = Jun 14 2018 16:25:42
* <ApplicationData>
* <Seaterm232>
* <SoftwareVersion>2.6.3.104</SoftwareVersion>
* <BuildDate>30-Jun-2017</BuildDate>
* </Seaterm232>
* </ApplicationData>
* cast   4 11 Jun 2018 14:53:55 samples 1301 to 1566, avg = 1, stop = mag switch
# nquan = 15
# nvalues = 179                         
# units = specified
# name 0 = depFM: Depth [fresh water, m]
# name 1 = dz/dtM: Descent Rate [m/s]
# name 2 = sbeox0Mg/L: Oxygen, SBE 43 [mg/l]
# name 3 = sbeox0PS: Oxygen, SBE 43 [% saturation]
# name 4 = specc: Specific Conductance [uS/cm]
# name 5 = c0uS/cm: Conductivity [uS/cm]
# name 6 = flECO-AFL: Fluorescence, WET Labs ECO-AFL/FL [mg/m^3]
# name 7 = ph: pH
# name 8 = orp: Oxidation Reduction Potential [mV]
# name 9 = par/sat/log: PAR/Logarithmic, Satlantic
# name 10 = turbWETntu0: Turbidity, WET Labs ECO [NTU]
# name 11 = prdM: Pressure, Strain Gauge [db]
# name 12 = prdE: Pressure, Strain Gauge [psi]
# name 13 = tv290C: Temperature [ITS-90, deg C]
# name 14 = flag:  0.000e+00
# span 0 =     -0.593,      5.417       
# span 1 = -1.863e-07,      0.359       
# span 2 =     6.7124,     8.6780       
# span 3 =     72.553,     91.786       
# span 4 =      0.685,     44.569       
# span 5 =   0.651550,  33.885399       
# span 6 =    -0.1915,     2.6736       
# span 7 =      6.290,      8.008       
# span 8 =  -129.9672,   319.1261       
# span 9 = 1.2824e+00, 4.0626e+02       
# span 10 =    -0.2909,     4.6920      
# span 11 =     -0.582,      5.313      
# span 12 =     -0.845,      7.706      
# span 13 =    12.3287,    24.8327      
# span 14 = 0.0000e+00, 0.0000e+00      
# interval = seconds: 0.25
# start_time = Jun 11 2018 14:53:55 [Instrument's time stamp, header]
# bad_flag = -9.990e-29
# <Sensors count="9" >
#   <sensor Channel="1" >
#     <!-- Count, Temperature -->
#     <TemperatureSensor SensorID="58" >
#       <SerialNumber>7809</SerialNumber>
#       <CalibrationDate>09-Mar-18</CalibrationDate>
#       <A0>1.21093245e-003</A0>
#       <A1>2.84356597e-004</A1>
#       <A2>-1.94507398e-006</A2>
#       <A3>2.12806664e-007</A3>
#       <Slope>1.00000000</Slope>
#       <Offset>0.0000</Offset>
#     </TemperatureSensor>
#   </sensor>
#   <sensor Channel="2" >
#     <!-- Frequency 0, Conductivity -->
#     <ConductivitySensor SensorID="3" >
#       <SerialNumber>7809</SerialNumber>
#       <CalibrationDate>09-Mar-18</CalibrationDate>
#       <UseG_J>1</UseG_J>
#       <!-- Cell const and series R are applicable only for wide range sensors. -->
#       <SeriesR>0.0000</SeriesR>
#       <CellConst>2000.0000</CellConst>
#       <ConductivityType>0</ConductivityType>
#       <Coefficients equation="0" >
#         <A>0.00000000e+000</A>
#         <B>0.00000000e+000</B>
#         <C>0.00000000e+000</C>
#         <D>0.00000000e+000</D>
#         <M>0.0</M>
#         <CPcor>-9.57000000e-008</CPcor>
#       </Coefficients>
#       <Coefficients equation="1" >
#         <G>-1.00672082e+000</G>
#         <H>1.26906489e-001</H>
#         <I>-1.40584351e-004</I>
#         <J>2.47837121e-005</J>
#         <CPcor>-9.57000000e-008</CPcor>
#         <CTcor>3.2500e-006</CTcor>
#         <!-- WBOTC not applicable unless ConductivityType = 1. -->
#         <WBOTC>0.00000000e+000</WBOTC>
#       </Coefficients>
#       <Slope>1.00000000</Slope>
#       <Offset>0.00000</Offset>
#     </ConductivitySensor>
#   </sensor>
#   <sensor Channel="3" >
#     <!-- Count, Pressure, Strain Gauge -->
#     <PressureSensor SensorID="46" >
#       <SerialNumber>7809</SerialNumber>
#       <CalibrationDate>07-Mar-18</CalibrationDate>
#       <PA0>-4.08176359e-002</PA0>
#       <PA1>4.85188419e-004</PA1>
#       <PA2>-3.51168169e-012</PA2>
#       <PTEMPA0>-5.37806900e+001</PTEMPA0>
#       <PTEMPA1>5.36620721e+001</PTEMPA1>
#       <PTEMPA2>4.87214332e-002</PTEMPA2>
#       <PTCA0>5.25213435e+005</PTCA0>
#       <PTCA1>1.79532409e+000</PTCA1>
#       <PTCA2>-2.84353509e-001</PTCA2>
#       <PTCB0>2.51668750e+001</PTCB0>
#       <PTCB1>3.75000000e-004</PTCB1>
#       <PTCB2>0.00000000e+000</PTCB2>
#       <Offset>0.000000</Offset>
#     </PressureSensor>
#   </sensor>
#   <sensor Channel="4" >
#     <!-- A/D voltage 0, pH -->
#     <pH_Sensor SensorID="43" >
#       <SerialNumber>0363</SerialNumber>
#       <CalibrationDate>16-Mar-18</CalibrationDate>
#       <Slope>4.6194</Slope>
#       <Offset>2.5947</Offset>
#     </pH_Sensor>
#   </sensor>
#   <sensor Channel="5" >
#     <!-- A/D voltage 1, Oxidation Reduction Potential -->
#     <OxidationReductionPotentialSensor SensorID="41" >
#       <SerialNumber>0363</SerialNumber>
#       <CalibrationDate>16-Mar-18</CalibrationDate>
#       <B>2.499480</B>
#       <M>-0.496195</M>
#       <Offset>0.0</Offset>
#     </OxidationReductionPotentialSensor>
#   </sensor>
#   <sensor Channel="6" >
#     <!-- A/D voltage 2, Oxygen, SBE 43 -->
#     <OxygenSensor SensorID="38" >
#       <SerialNumber>0434</SerialNumber>
#       <CalibrationDate>13-Mar-18</CalibrationDate>
#       <Use2007Equation>1</Use2007Equation>
#       <CalibrationCoefficients equation="0" >
#         <!-- Coefficients for Owens-Millard equation. -->
#         <Boc>0.0000</Boc>
#         <Soc>0.0000e+000</Soc>
#         <offset>0.0000</offset>
#         <Pcor>0.00e+000</Pcor>
#         <Tcor>0.0000</Tcor>
#         <Tau>0.0</Tau>
#       </CalibrationCoefficients>
#       <CalibrationCoefficients equation="1" >
#         <!-- Coefficients for Sea-Bird equation - SBE calibration in 2007 and later. -->
#         <Soc>4.5718e-001</Soc>
#         <offset>-0.6113</offset>
#         <A>-4.0649e-003</A>
#         <B> 2.0945e-004</B>
#         <C>-3.3182e-006</C>
#         <D0> 2.5826e+000</D0>
#         <D1> 1.92634e-004</D1>
#         <D2>-4.64803e-002</D2>
#         <E> 3.6000e-002</E>
#         <Tau20> 1.2200</Tau20>
#         <H1>-3.3000e-002</H1>
#         <H2> 5.0000e+003</H2>
#         <H3> 1.4500e+003</H3>
#       </CalibrationCoefficients>
#     </OxygenSensor>
#   </sensor>
#   <sensor Channel="7" >
#     <!-- A/D voltage 3, PAR/Logarithmic, Satlantic -->
#     <PARLog_SatlanticSensor SensorID="76" >
#       <SerialNumber>1122</SerialNumber>
#       <CalibrationDate>22-Jun-2017</CalibrationDate>
#       <a0>9.6090e-001</a0>
#       <a1>8.0780e-001</a1>
#       <Im>1.3589e+000</Im>
#       <Multiplier>1.0000e+000</Multiplier>
#     </PARLog_SatlanticSensor>
#   </sensor>
#   <sensor Channel="8" >
#     <!-- A/D voltage 4, Fluorometer, WET Labs ECO-AFL/FL -->
#     <FluoroWetlabECO_AFL_FL_Sensor SensorID="20" >
#       <SerialNumber>FLNTURT-2496</SerialNumber>
#       <CalibrationDate>25-Jan-2017</CalibrationDate>
#       <ScaleFactor>5.30000000e+001</ScaleFactor>
#       <!-- Dark output -->
#       <Vblank>0.0560</Vblank>
#     </FluoroWetlabECO_AFL_FL_Sensor>
#   </sensor>
#   <sensor Channel="9" >
#     <!-- A/D voltage 5, Turbidity Meter, WET Labs, ECO-NTU -->
#     <TurbidityMeter SensorID="67" >
#       <SerialNumber>FLNTURT-2496</SerialNumber>
#       <CalibrationDate>25-Jan-2017</CalibrationDate>
#       <ScaleFactor>176.000000</ScaleFactor>
#       <!-- Dark output -->
#       <DarkVoltage>0.072000</DarkVoltage>
#     </TurbidityMeter>
#   </sensor>
# </Sensors>
# datcnv_date = Jun 14 2018 16:42:55, 7.26.7.114 [datcnv_vars = 14]
# datcnv_in = C:\DATA\061118_fcr30.hex C:\DATA\SBE19plusV2_7809.xmlcon
# datcnv_skipover = 0
# datcnv_ox_hysteresis_correction = yes
# datcnv_ox_tau_correction = yes
# filter_date = Jun 14 2018 16:44:33, 7.26.7.114
# filter_in = C:\DATA\061118_fcr30.cnv
# filter_low_pass_tc_A = 0.030
# filter_low_pass_tc_B = 0.150
# filter_low_pass_A_vars = prdM prdE tv290C
# filter_low_pass_B_vars = depFM dz/dtM sbeox0Mg/L sbeox0PS specc c0uS/cm flECO-AFL ph orp par/sat/log turbWETntu0
# alignctd_date = Jun 14 2018 16:45:24, 7.26.7.114
# alignctd_in = C:\DATA\061118_fcr30.cnv
# alignctd_adv = dz/dtM 1.000, sbeox0Mg/L 1.000, sbeox0PS 1.000, specc 1.000, c0uS/cm 1.000, flECO-AFL 1.000, ph 1.000, orp 1.000, turbWETntu0 1.000                                                                                 
# file_type = ascii
*END*
     -0.592 -1.157e-12     7.5178     86.887      0.699   0.664327    -0.1768      6.304   237.9841 3.8800e+02    -0.1524     -0.580     -0.842    22.5433 0.0000e+00
     -0.592 -1.272e-11     7.5185     86.894      0.685   0.651560    -0.1744      6.306   241.3106 3.8760e+02    -0.1927     -0.581     -0.843    22.5432 0.0000e+00
     -0.592 -1.400e-10     7.5194     86.903      0.696   0.661945    -0.1777      6.309   246.9738 3.8732e+02    -0.1902     -0.581     -0.842    22.5430 0.0000e+00
     -0.592 -1.540e-09     7.5200     86.911      0.697   0.663080    -0.1697      6.312   252.7691 3.8728e+02    -0.1835     -0.580     -0.842    22.5428 0.0000e+00
     -0.592 -1.694e-08     7.5200     86.911      0.700   0.665271    -0.1609      6.314   257.1756 3.8642e+02    -0.2031     -0.581     -0.842    22.5427 0.0000e+00
     -0.593 -1.863e-07     7.5197     86.908      0.725   0.688433    -0.1534      6.316   260.3301 3.8413e+02    -0.2134     -0.581     -0.843    22.5425 0.0000e+00
     -0.593 -1.863e-07     7.5193     86.903      0.725   0.689481    -0.1529      6.318   262.5179 3.8184e+02    -0.2162     -0.581     -0.843    22.5424 0.0000e+00
     -0.593 -1.693e-08     7.5187     86.895      0.713   0.677943    -0.1643      6.319   263.8390 3.8349e+02    -0.2072     -0.580     -0.842    22.5422 0.0000e+00
     -0.593 -1.539e-09     7.5193     86.902      0.711   0.675760    -0.1722      6.321   264.2571 3.8929e+02    -0.1644     -0.581     -0.843    22.5422 0.0000e+00
     -0.592 -1.400e-10     7.5203     86.914      0.697   0.663088    -0.1651      6.322   264.2184 3.9296e+02    -0.1268     -0.581     -0.842    22.5421 0.0000e+00
     -0.592 -1.272e-11     7.5194     86.903      0.685   0.651550    -0.1607      6.323   264.6617 3.9241e+02    -0.1483     -0.581     -0.842    22.5420 0.0000e+00
     -0.593 -1.157e-12     7.5183     86.890      0.697   0.663080    -0.1657      6.323   266.0885 3.9000e+02    -0.1812     -0.581     -0.843    22.5418 0.0000e+00
     -0.593 -1.052e-13     7.5169     86.874      0.711   0.675667    -0.1607      6.322   267.6177 3.8378e+02    -0.1582     -0.581     -0.843    22.5417 0.0000e+00
     -0.593 -9.560e-15     7.5158     86.860      0.712   0.676914    -0.1554      6.322   268.6960 3.7027e+02    -0.1456     -0.581     -0.843    22.5417 0.0000e+00
     -0.593 -8.690e-16     7.5169     86.873      0.713   0.678160    -0.1665      6.321   270.6087 3.5368e+02    -0.1813     -0.581     -0.843    22.5415 0.0000e+00
     -0.592 -7.900e-17     7.5185     86.892      0.727   0.690738    -0.1847      6.321   280.0756 3.4313e+02    -0.1926     -0.581     -0.842    22.5412 0.0000e+00
     -0.592 -7.180e-18     7.5187     86.893      0.739   0.702166    -0.1915      6.321   291.0115 3.3855e+02    -0.1902     -0.581     -0.842    22.5411 0.0000e+00
     -0.592 -6.530e-19     7.5194     86.902      0.725   0.689503    -0.1758      6.317   288.4013 3.2975e+02    -0.2133     -0.581     -0.843    22.5412 0.0000e+00
     -0.593 -5.939e-20     7.5216     86.927      0.699   0.664463    -0.1600      6.312   279.4898 3.1894e+02    -0.2269     -0.581     -0.843    22.5412 0.0000e+00
     -0.593 -5.886e-21     7.5225     86.937      0.687   0.653048    -0.1656      6.308   176.8106 3.2111e+02    -0.2338     -0.581     -0.843    22.5411 0.0000e+00
     -0.593 -5.887e-21     7.5220     86.931      0.714   0.678319    -0.1782      6.303   -24.9782 3.3166e+02    -0.2358     -0.582     -0.844    22.5409 0.0000e+00
     -0.593 -5.941e-20     7.5208     86.916      0.754   0.716367    -0.1749      6.300  -129.9672 3.3326e+02    -0.2506     -0.581     -0.842    22.5407 0.0000e+00
     -0.593 -6.530e-19     7.5195     86.901      0.771   0.732604    -0.1624      6.300  -125.9513 3.2664e+02    -0.2909     -0.581     -0.843    22.5406 0.0000e+00
     -0.593 -7.183e-18     7.5198     86.904      0.787   0.747817    -0.1651      6.303  -112.7945 3.1832e+02    -0.2650     -0.581     -0.843    22.5404 0.0000e+00
     -0.593 -7.901e-17     7.5219     86.929      0.813   0.773477    -0.1706      6.304  -100.8946 3.0959e+02    -0.1514     -0.581     -0.843    22.5399 0.0000e+00
     -0.592 -8.691e-16     7.5261     86.977      0.830   0.789211    -0.1649      6.304   -91.5982 3.0564e+02    -0.0466     -0.581     -0.843    22.5400 0.0000e+00
     -0.592 -9.560e-15     7.5308     87.030      0.853   0.811232    -0.1614      6.304   -82.9908 3.0747e+02    -0.0042     -0.581     -0.842    22.5399 0.0000e+00
     -0.592 -1.052e-13     7.5346     87.075      0.893   0.849498    -0.1642      6.305   -73.6564 3.1262e+02     0.0257     -0.581     -0.842    22.5397 0.0000e+00
     -0.592 -1.157e-12     7.5375     87.109      0.917   0.871406    -0.1710      6.307   -64.0020 3.1635e+02     0.0701     -0.580     -0.842    22.5397 0.0000e+00
     -0.592 -1.272e-11     7.5392     87.129      0.932   0.885882    -0.1792      6.308   -53.9342 3.1336e+02     0.0747     -0.581     -0.843    22.5396 0.0000e+00
     -0.593 -1.400e-10     7.5411     87.150      0.944   0.897697    -0.1813      6.309   -42.2685 3.1098e+02     0.0507     -0.581     -0.843    22.5397 0.0000e+00
     -0.593 -1.540e-09     7.5430     87.172      0.933   0.887430    -0.1774      6.309   -28.5229 3.1758e+02     0.0242     -0.581     -0.843    22.5395 0.0000e+00
     -0.593 -1.694e-08     7.5434     87.176      0.934   0.888575    -0.1691      6.308   -12.9244 3.2414e+02    -0.0015     -0.581     -0.843    22.5393 0.0000e+00
     -0.593 -1.863e-07     7.5422     87.163      0.958   0.911538    -0.1641      6.306     5.5705 3.2249e+02    -0.0159     -0.581     -0.843    22.5393 0.0000e+00
     -0.593 -1.863e-07     7.5408     87.147      0.958   0.911418    -0.1720      6.305    26.4610 3.1921e+02    -0.0282     -0.582     -0.844    22.5394 0.0000e+00
     -0.593 -1.693e-08     7.5399     87.136      0.933   0.887129    -0.1723      6.305    46.7615 3.1877e+02     0.0029     -0.581     -0.843    22.5393 0.0000e+00
     -0.592 -1.539e-09     7.5392     87.128      0.916   0.871520    -0.1678      6.304    65.6062 3.2220e+02    -0.0056     -0.581     -0.843    22.5392 0.0000e+00
     -0.592 -1.400e-10     7.5388     87.123      0.893   0.849520    -0.1728      6.303    84.0392 3.3235e+02    -0.1321     -0.581     -0.843    22.5393 0.0000e+00
     -0.592 -1.272e-11     7.5385     87.120      0.853   0.811358    -0.1686      6.303    99.7922 3.4798e+02    -0.2138     -0.581     -0.843    22.5392 0.0000e+00
     -0.593 -1.156e-12     7.5389     87.124      0.831   0.790584    -0.1624      6.302   109.3781 3.6327e+02    -0.1999     -0.582     -0.844    22.5391 0.0000e+00
     -0.593 -1.040e-13     7.5391     87.126      0.829   0.788582    -0.1711      6.299   113.6433 3.7544e+02    -0.1780     -0.581     -0.843    22.5391 0.0000e+00
     -0.593 2.8265e-15     7.5381     87.115      0.828   0.787154    -0.1825      6.295   115.8279 3.8399e+02    -0.1628     -0.581     -0.843    22.5390 0.0000e+00
     -0.593 1.3538e-13     7.5367     87.099      0.813   0.773314    -0.1807      6.292   118.9281 3.9043e+02    -0.1681     -0.582     -0.844    22.5390 0.0000e+00
     -0.593 1.4987e-12     7.5355     87.084      0.787   0.748066    -0.1767      6.292   122.9925 3.9849e+02    -0.1811     -0.581     -0.843    22.5390 0.0000e+00
     -0.593 1.6486e-11     7.5342     87.069      0.774   0.735531    -0.1797      6.292   113.9494 4.0566e+02    -0.1989     -0.582     -0.844    22.5389 0.0000e+00
     -0.593 1.8135e-10     7.5336     87.062      0.787   0.748576    -0.1811      6.293   100.7040 4.0626e+02    -0.2302     -0.582     -0.845    22.5387 0.0000e+00
     -0.593 1.9948e-09     7.5331     87.056      0.819   0.778974    -0.1746      6.294   107.7349 4.0190e+02    -0.2227     -0.582     -0.844    22.5387 0.0000e+00
     -0.593 2.1943e-08     7.5314     87.036      0.827   0.786013    -0.1659      6.294   118.7704 3.9604e+02    -0.2009     -0.582     -0.845    22.5386 0.0000e+00
     -0.593 2.4138e-07     7.5310     87.031      0.810   0.770263    -0.1679      6.295   122.5400 3.8329e+02    -0.2109     -0.582     -0.844    22.5388 0.0000e+00
     -0.593      0.000     7.5322     87.046      0.819   0.778773    -0.1708      6.295   128.3618 3.6061e+02    -0.2215     -0.582     -0.844    22.5384 0.0000e+00
     -0.593      0.000     7.5322     87.046      0.868   0.825499    -0.1639      6.295   132.8053 3.3789e+02    -0.2061     -0.581     -0.843    22.5387 0.0000e+00
     -0.593      0.000     7.5300     87.036      1.069   1.018165    -0.1581      6.290    93.3246 3.1948e+02    -0.2090     -0.581     -0.843    22.5377 0.0000e+00
     -0.593      0.004     7.5160     87.031      3.044   2.918050    -0.1654      6.336    18.1330 3.0550e+02    -0.2559     -0.582     -0.844    22.5388 0.0000e+00
     -0.593      0.014     7.4735     87.033     10.458  10.097679    -0.1786      6.530    57.3908 3.0373e+02    -0.2540     -0.581     -0.843    22.5370 0.0000e+00
     -0.593      0.033     7.4102     87.039     21.833  21.210967    -0.1802      6.872   210.9248 3.1337e+02    -0.1863     -0.580     -0.842    22.5403 0.0000e+00
     -0.591      0.059     7.3537     87.049     29.577  28.898998    -0.1663      7.276   298.9480 3.2599e+02    -0.1701     -0.582     -0.844    22.5348 0.0000e+00
     -0.581      0.091     7.3146     87.059     31.701  31.134910    -0.1486      7.642   308.9449 3.3487e+02    -0.2102     -0.580     -0.840    22.5495 0.0000e+00
     -0.551      0.129     7.2856     87.058     31.855  31.418686    -0.1315      7.890   302.3705 3.3769e+02    -0.1225     -0.545     -0.791    22.8676 0.0000e+00
     -0.507      0.169     7.2629     87.070     31.830  31.504696     0.0230      7.996   284.3313 3.3775e+02     1.1653     -0.496     -0.721    23.4333 0.0000e+00
     -0.457      0.206     7.2477     87.116     31.774  31.539924     0.3121      8.008   271.6029 3.4227e+02     3.4894     -0.451     -0.653    23.8573 0.0000e+00
     -0.400      0.240     7.2409     87.196     31.698  31.527216     0.4698      7.970   268.8421 3.5448e+02     4.6920     -0.397     -0.576    24.1206 0.0000e+00
     -0.331      0.268     7.2440     87.330     31.611  31.478148     0.5049      7.900   268.5029 3.6673e+02     4.6890     -0.325     -0.471    24.3175 0.0000e+00
     -0.258      0.289     7.2565     87.530     31.568  31.454771     0.7826      7.813   268.8782 3.7111e+02     3.7588     -0.252     -0.365    24.4937 0.0000e+00
     -0.182      0.304     7.2767     87.793     31.540  31.435116     1.3007      7.723   270.1101 3.5419e+02     1.9901     -0.186     -0.269    24.6428 0.0000e+00
     -0.096      0.307     7.3048     88.138     31.470  31.367525     1.5864      7.649   271.1803 2.9595e+02     1.0046     -0.093     -0.135    24.7386 0.0000e+00
     -0.007      0.300     7.3493     88.668     31.441  31.336129     1.6087      7.590   271.7513 2.1707e+02     0.9067     -0.004     -0.006    24.7964 0.0000e+00
      0.076      0.290     7.4235     89.544     31.486  31.373041     1.6071      7.541   272.7115 1.6385e+02     0.8974      0.075      0.108    24.8214 0.0000e+00
      0.151      0.280     7.5159     90.629     31.493  31.369255     1.6121      7.503   273.5833 1.3864e+02     0.8929      0.159      0.231    24.8308 0.0000e+00
