* Sea-Bird SBE19plus  Data File:
* FileName = C:\R\Reservoirs\Data\DataNotYetUploadedToEDI\Raw_CTD\RawDownloads\062022_bvr01_0005.hex
* Software version 2.8.0.119
* Temperature SN = 7809
* Conductivity SN = 7809
* System UpLoad Time = Jun 21 2022 11:24:37
* <ApplicationData>
* <Seaterm232>
* <SoftwareVersion>2.8.0.119</SoftwareVersion>
* <BuildDate>07-Nov-2018</BuildDate>
* </Seaterm232>
* </ApplicationData>
* <InstrumentState>
* <HardwareData DeviceType='SBE19plus' SerialNumber='01907809'>
*
*    <Manufacturer>Sea-Bird Electronics, Inc.</Manufacturer>
*
*    <FirmwareVersion>3.1.8</FirmwareVersion>
*
*    <FirmwareDate>Mar  9 2016 16:22:29</FirmwareDate>
*
*    <CommandSetVersion>1.4</CommandSetVersion>
*
*    <PCBAssembly PCBSerialNum='120721' AssemblyNum='41054J'/>
*
*    <PCBAssembly PCBSerialNum='120715' AssemblyNum='41967A'/>
*
*    <PCBAssembly PCBSerialNum='116699' AssemblyNum='41606'/>
*
*    <PCBAssembly PCBSerialNum='120719' AssemblyNum='41059D'/>
*
*    <MfgDate>28-Apr-2017</MfgDate>
*
*    <InternalSensors>
*
*       <Sensor id='Main Temperature'>
*
*          <type>temperature0</type>
*
*          <SerialNumber>01907809</SerialNumber>
*
*       </Sensor>
*
*       <Sensor id='Main Conductivity'>
*
*          <type>conductivity-0</type>
*
*          <SerialNumber>01907809</SerialNumber>
*
*       </Sensor>
*
*       <Sensor id='Main Pressure'>
*
*          <type>strain-0</type>
*
*          <SerialNumber>10586018</SerialNumber>
*
*       </Sensor>
*
*    </InternalSensors>
*
*    <ExternalSensors>
*
*       <Sensor id='volt 0'>
*
*          <type>pH</type>
*
*          <SerialNumber>27-0363</SerialNumber>
*
*       </Sensor>
*
*       <Sensor id='volt 1'>
*
*          <type>ORP</type>
*
*          <SerialNumber>27-0363</SerialNumber>
*
*       </Sensor>
*
*       <Sensor id='volt 2'>
*
*          <type>OXY</type>
*
*          <SerialNumber>43-0434</SerialNumber>
*
*       </Sensor>
*
*       <Sensor id='volt 3'>
*
*          <type>PAR</type>
*
*          <SerialNumber>1122</SerialNumber>
*
*       </Sensor>
*
*       <Sensor id='volt 4'>
*
*          <type>ECO AFL/FL</type>
*
*          <SerialNumber>FLNTURT-2496</SerialNumber>
*
*       </Sensor>
*
*       <Sensor id='volt 5'>
*
*          <type>ECO-NTU</type>
*
*          <SerialNumber>FLNTURT-2496</SerialNumber>
*
*       </Sensor>
*
*       <Sensor id='serial'>
*
*          <type>not assigned</type>
*
*          <SerialNumber>not assigned</SerialNumber>
*
*       </Sensor>
*
*    </ExternalSensors>
*
* </HardwareData>
* <StatusData DeviceType='SBE19plus' SerialNumber='01907809'>
*
*    <DateTime>2022-06-21T08:21:43</DateTime>
*
*    <LoggingState>not logging</LoggingState>
*
*    <EventSummary numEvents='0'/>
*
*    <Power>
*
*       <vMain>12.6</vMain>
*
*       <vLith>8.4</vLith>
*
*       <iMain>63.1</iMain>
*
*       <iPump>109.6</iPump>
*
*       <iExt01>20.5</iExt01>
*
*       <iExt2345>39.0</iExt2345>
*
*    </Power>
*
*    <MemorySummary>
*
*       <Bytes>141427</Bytes>
*
*       <Samples>6149</Samples>
*
*       <SamplesFree>2854639</SamplesFree>
*
*       <SampleLength>23</SampleLength>
*
*       <Profiles>5</Profiles>
*
*    </MemorySummary>
*
* </StatusData>
* <ConfigurationData DeviceType='SBE19plus' SerialNumber='01907809'>
*
*    <ProfileMode>
*
*       <ScansToAverage>1</ScansToAverage>
*
*       <MinimumCondFreq>5</MinimumCondFreq>
*
*       <PumpDelay>40</PumpDelay>
*
*       <AutoRun>no</AutoRun>
*
*       <IgnoreSwitch>no</IgnoreSwitch>
*
*    </ProfileMode>
*
*    <Battery>
*
*       <Type>alkaline</Type>
*
*       <CutOff>7.5</CutOff>
*
*    </Battery>
*
*    <DataChannels>
*
*       <ExtVolt0>yes</ExtVolt0>
*
*       <ExtVolt1>yes</ExtVolt1>
*
*       <ExtVolt2>yes</ExtVolt2>
*
*       <ExtVolt3>yes</ExtVolt3>
*
*       <ExtVolt4>yes</ExtVolt4>
*
*       <ExtVolt5>yes</ExtVolt5>
*
*       <SBE38>no</SBE38>
*
*       <WETLABS>no</WETLABS>
*
*       <OPTODE>no</OPTODE>
*
*       <SBE63>no</SBE63>
*
*       <SeaFET>no</SeaFET>
*
*       <GTD>no</GTD>
*
*    </DataChannels>
*
*    <EchoCharacters>yes</EchoCharacters>
*
*    <OutputExecutedTag>yes</OutputExecutedTag>
*
*    <OutputFormat>raw HEX</OutputFormat>
*
* </ConfigurationData>
* <CalibrationCoefficients DeviceType='SBE19plus' SerialNumber='01907809'>
*
*    <Calibration format='TEMP1' id='Main Temperature'>
*
*       <SerialNum>01907809</SerialNum>
*
*       <CalDate>25-Sep-21</CalDate>
*
*       <TA0>1.232513e-03</TA0>
*
*       <TA1>2.763223e-04</TA1>
*
*       <TA2>-9.501887e-07</TA2>
*
*       <TA3>1.718014e-07</TA3>
*
*       <TOFFSET>0.000000e+00</TOFFSET>
*
*    </Calibration>
*
*    <Calibration format='WBCOND0' id='Main Conductivity'>
*
*       <SerialNum>01907809</SerialNum>
*
*       <CalDate>25-Sep-21</CalDate>
*
*       <G>-1.004440e+00</G>
*
*       <H>1.264604e-01</H>
*
*       <I>-7.854363e-05</I>
*
*       <J>2.210938e-05</J>
*
*       <CPCOR>-9.570000e-08</CPCOR>
*
*       <CTCOR>3.250000e-06</CTCOR>
*
*       <CSLOPE>1.000000e+00</CSLOPE>
*
*    </Calibration>
*
*    <Calibration format='STRAIN0' id='Main Pressure'>
*
*       <SerialNum>10586018</SerialNum>
*
*       <CalDate>10-Sep-21</CalDate>
*
*       <PA0>4.789196e-02</PA0>
*
*       <PA1>4.853655e-04</PA1>
*
*       <PA2>-3.689276e-12</PA2>
*
*       <PTCA0>5.254946e+05</PTCA0>
*
*       <PTCA1>1.325193e+01</PTCA1>
*
*       <PTCA2>-3.889275e-01</PTCA2>
*
*       <PTCB0>2.516687e+01</PTCB0>
*
*       <PTCB1>3.750000e-04</PTCB1>
*
*       <PTCB2>0.000000e+00</PTCB2>
*
*       <PTEMPA0>-5.401644e+01</PTEMPA0>
*
*       <PTEMPA1>5.390655e+01</PTEMPA1>
*
*       <PTEMPA2>-2.194112e-02</PTEMPA2>
*
*       <POFFSET>-1.280000e-01</POFFSET>
*
*       <PRANGE>1.600000e+02</PRANGE>
*
*    </Calibration>
*
*    <Calibration format='VOLT0' id='Volt 0'>
*
*       <OFFSET>-4.920000e-02</OFFSET>
*
*       <SLOPE>1.248122e+00</SLOPE>
*
*    </Calibration>
*
*    <Calibration format='VOLT0' id='Volt 1'>
*
*       <OFFSET>-4.784000e-02</OFFSET>
*
*       <SLOPE>1.248871e+00</SLOPE>
*
*    </Calibration>
*
*    <Calibration format='VOLT0' id='Volt 2'>
*
*       <OFFSET>-4.864632e-02</OFFSET>
*
*       <SLOPE>1.248714e+00</SLOPE>
*
*    </Calibration>
*
*    <Calibration format='VOLT0' id='Volt 3'>
*
*       <OFFSET>-4.743790e-02</OFFSET>
*
*       <SLOPE>1.248571e+00</SLOPE>
*
*    </Calibration>
*
*    <Calibration format='VOLT0' id='Volt 4'>
*
*       <OFFSET>-4.671263e-02</OFFSET>
*
*       <SLOPE>1.248951e+00</SLOPE>
*
*    </Calibration>
*
*    <Calibration format='VOLT0' id='Volt 5'>
*
*       <OFFSET>-4.871053e-02</OFFSET>
*
*       <SLOPE>1.249136e+00</SLOPE>
*
*    </Calibration>
*
*    <Calibration format='FREQ0' id='external frequency channel'>
*
*       <EXTFREQSF>1.000014e+00</EXTFREQSF>
*
*    </Calibration>
*
* </CalibrationCoefficients>
* <EventCounters DeviceType='SBE19plus' SerialNumber='01907809'>
*
*    <EventSummary numEvents='0'/>
*
* </EventCounters></InstrumentState>
* <Headers>
*
* cast   5 20 Jun 2022 11:46:03 samples 5175 to 6149, avg = 1, stop = mag switch
*
# nquan = 15
# nvalues = 975                         
# units = specified
# name 0 = depFM: Depth [fresh water, m]
# name 1 = dz/dtM: Descent Rate [m/s]
# name 2 = sbeox0Mg/L: Oxygen, SBE 43 [mg/l]
# name 3 = sbeox0PS: Oxygen, SBE 43 [% saturation]
# name 4 = specc: Specific Conductance [uS/cm]
# name 5 = c0uS/cm: Conductivity [uS/cm]
# name 6 = flECO-AFL: Fluorescence, WET Labs ECO-AFL/FL [mg/m^3]
# name 7 = ph: pH
# name 8 = orp: Oxidation Reduction Potential [mV]
# name 9 = par/sat/log: PAR/Logarithmic, Satlantic
# name 10 = turbWETntu0: Turbidity, WET Labs ECO [NTU]
# name 11 = prdM: Pressure, Strain Gauge [db]
# name 12 = prdE: Pressure, Strain Gauge [psi]
# name 13 = tv290C: Temperature [ITS-90, deg C]
# name 14 = flag:  0.000e+00
# span 0 =     -0.591,      9.489       
# span 1 =     -0.554,      0.214       
# span 2 =     0.0573,    10.7993       
# span 3 =      0.514,    126.080       
# span 4 =      0.091,    291.764       
# span 5 =   0.084033, 203.614358       
# span 6 =    -0.1388,     4.5168       
# span 7 =     -2.471,     10.003       
# span 8 = -1240.7455,   207.6897       
# span 9 = 1.2358e-01, 5.8307e+02       
# span 10 =    -0.2803,   349.9707      
# span 11 =     -0.580,      9.307      
# span 12 =     -0.840,     13.498      
# span 13 =     9.7380,    23.3639      
# span 14 = 0.0000e+00, 0.0000e+00      
# interval = seconds: 0.25
# start_time = Jun 20 2022 11:46:03 [Instrument's time stamp, header]
# bad_flag = -9.990e-29
# <Sensors count="9" >
#   <sensor Channel="1" >
#     <!-- Count, Temperature -->
#     <TemperatureSensor SensorID="58" >
#       <SerialNumber>7809</SerialNumber>
#       <CalibrationDate>25-Sep-21</CalibrationDate>
#       <A0>1.23251324e-003</A0>
#       <A1>2.76322262e-004</A1>
#       <A2>-9.50188734e-007</A2>
#       <A3>1.71801404e-007</A3>
#       <Slope>1.00000000</Slope>
#       <Offset>0.0000</Offset>
#     </TemperatureSensor>
#   </sensor>
#   <sensor Channel="2" >
#     <!-- Frequency 0, Conductivity -->
#     <ConductivitySensor SensorID="3" >
#       <SerialNumber>7809</SerialNumber>
#       <CalibrationDate>25-Sep-21</CalibrationDate>
#       <UseG_J>1</UseG_J>
#       <!-- Cell const and series R are applicable only for wide range sensors. -->
#       <SeriesR>0.0000</SeriesR>
#       <CellConst>2000.0000</CellConst>
#       <ConductivityType>0</ConductivityType>
#       <Coefficients equation="0" >
#         <A>0.00000000e+000</A>
#         <B>0.00000000e+000</B>
#         <C>0.00000000e+000</C>
#         <D>0.00000000e+000</D>
#         <M>0.0</M>
#         <CPcor>-9.57000000e-008</CPcor>
#       </Coefficients>
#       <Coefficients equation="1" >
#         <G>-1.00443970e+000</G>
#         <H>1.26460406e-001</H>
#         <I>-7.85436262e-005</I>
#         <J>2.21093811e-005</J>
#         <CPcor>-9.57000000e-008</CPcor>
#         <CTcor>3.2500e-006</CTcor>
#         <!-- WBOTC not applicable unless ConductivityType = 1. -->
#         <WBOTC>0.00000000e+000</WBOTC>
#       </Coefficients>
#       <Slope>1.00000000</Slope>
#       <Offset>0.00000</Offset>
#     </ConductivitySensor>
#   </sensor>
#   <sensor Channel="3" >
#     <!-- Count, Pressure, Strain Gauge -->
#     <PressureSensor SensorID="46" >
#       <SerialNumber>7809</SerialNumber>
#       <CalibrationDate>10-Sep-21</CalibrationDate>
#       <PA0>4.78919585e-002</PA0>
#       <PA1>4.85365526e-004</PA1>
#       <PA2>-3.68927597e-012</PA2>
#       <PTEMPA0>-5.40164371e+001</PTEMPA0>
#       <PTEMPA1>5.39065456e+001</PTEMPA1>
#       <PTEMPA2>-2.19411190e-002</PTEMPA2>
#       <PTCA0>5.25494622e+005</PTCA0>
#       <PTCA1>1.32519328e+001</PTCA1>
#       <PTCA2>-3.88927502e-001</PTCA2>
#       <PTCB0>2.51668750e+001</PTCB0>
#       <PTCB1>3.75000000e-004</PTCB1>
#       <PTCB2>0.00000000e+000</PTCB2>
#       <Offset>0.000000</Offset>
#     </PressureSensor>
#   </sensor>
#   <sensor Channel="4" >
#     <!-- A/D voltage 0, Oxygen, SBE 43 -->
#     <OxygenSensor SensorID="38" >
#       <SerialNumber>0434</SerialNumber>
#       <CalibrationDate>25-Sep-21</CalibrationDate>
#       <Use2007Equation>1</Use2007Equation>
#       <CalibrationCoefficients equation="0" >
#         <!-- Coefficients for Owens-Millard equation. -->
#         <Boc>0.0000</Boc>
#         <Soc>0.0000e+000</Soc>
#         <offset>0.0000</offset>
#         <Pcor>0.00e+000</Pcor>
#         <Tcor>0.0000</Tcor>
#         <Tau>0.0</Tau>
#       </CalibrationCoefficients>
#       <CalibrationCoefficients equation="1" >
#         <!-- Coefficients for Sea-Bird equation - SBE calibration in 2007 and later. -->
#         <Soc>4.7287e-001</Soc>
#         <offset>-0.5046</offset>
#         <A>-3.6094e-003</A>
#         <B> 1.1544e-004</B>
#         <C>-1.3802e-006</C>
#         <D0> 2.5826e+000</D0>
#         <D1> 1.92634e-004</D1>
#         <D2>-4.64803e-002</D2>
#         <E> 3.6000e-002</E>
#         <Tau20> 0.7700</Tau20>
#         <H1>-3.3000e-002</H1>
#         <H2> 5.0000e+003</H2>
#         <H3> 1.4500e+003</H3>
#       </CalibrationCoefficients>
#     </OxygenSensor>
#   </sensor>
#   <sensor Channel="5" >
#     <!-- A/D voltage 1, PAR/Logarithmic, Satlantic -->
#     <PARLog_SatlanticSensor SensorID="76" >
#       <SerialNumber>1122</SerialNumber>
#       <CalibrationDate>08-Sep-2021</CalibrationDate>
#       <a0>9.6751e-001</a0>
#       <a1>8.0992e-001</a1>
#       <Im>1.3589e+000</Im>
#       <Multiplier>1.0000e+000</Multiplier>
#     </PARLog_SatlanticSensor>
#   </sensor>
#   <sensor Channel="6" >
#     <!-- A/D voltage 2, pH -->
#     <pH_Sensor SensorID="43" >
#       <SerialNumber>0363</SerialNumber>
#       <CalibrationDate>16-Sep-21</CalibrationDate>
#       <Slope>4.5144</Slope>
#       <Offset>2.4957</Offset>
#     </pH_Sensor>
#   </sensor>
#   <sensor Channel="7" >
#     <!-- A/D voltage 3, Oxidation Reduction Potential -->
#     <OxidationReductionPotentialSensor SensorID="41" >
#       <SerialNumber>0363</SerialNumber>
#       <CalibrationDate>16-Sep-21</CalibrationDate>
#       <B>2.499480</B>
#       <M>-0.496195</M>
#       <Offset>0.0</Offset>
#     </OxidationReductionPotentialSensor>
#   </sensor>
#   <sensor Channel="8" >
#     <!-- A/D voltage 4, Fluorometer, WET Labs ECO-AFL/FL -->
#     <FluoroWetlabECO_AFL_FL_Sensor SensorID="20" >
#       <SerialNumber>FLNTURT-2496</SerialNumber>
#       <CalibrationDate>02-Sep-2021</CalibrationDate>
#       <ScaleFactor>4.80000000e+001</ScaleFactor>
#       <!-- Dark output -->
#       <Vblank>0.0550</Vblank>
#     </FluoroWetlabECO_AFL_FL_Sensor>
#   </sensor>
#   <sensor Channel="9" >
#     <!-- A/D voltage 5, Turbidity Meter, WET Labs, ECO-NTU -->
#     <TurbidityMeter SensorID="67" >
#       <SerialNumber>FLNTURT-2496</SerialNumber>
#       <CalibrationDate>02-Sep-2021</CalibrationDate>
#       <ScaleFactor>197.000000</ScaleFactor>
#       <!-- Dark output -->
#       <DarkVoltage>0.070000</DarkVoltage>
#     </TurbidityMeter>
#   </sensor>
# </Sensors>
# datcnv_date = Jun 21 2022 11:51:19, 7.26.7.129 [datcnv_vars = 14]
# datcnv_in = C:\R\Reservoirs\Data\DataNotYetUploadedToEDI\Raw_CTD\RawDownloads\062022_fcr50_0005.hex C:\R\Reservoirs\Data\DataNotYetUploadedToEDI\Raw_CTD\SBE19plusV2_7809.xmlcon
# datcnv_skipover = 0
# datcnv_ox_hysteresis_correction = yes
# datcnv_ox_tau_correction = yes
# filter_date = Jun 21 2022 11:51:39, 7.26.7.129
# filter_in = C:\R\Reservoirs\Data\DataNotYetUploadedToEDI\Raw_CTD\RawDownloads\062022_fcr50_0005.cnv
# filter_low_pass_tc_A = 0.030
# filter_low_pass_tc_B = 0.150
# filter_low_pass_A_vars = sbeox0Mg/L prdM prdE tv290C
# filter_low_pass_B_vars = depFM dz/dtM sbeox0PS specc c0uS/cm flECO-AFL ph orp par/sat/log turbWETntu0
# alignctd_date = Jun 21 2022 11:52:04, 7.26.7.129
# alignctd_in = C:\R\Reservoirs\Data\DataNotYetUploadedToEDI\Raw_CTD\RawDownloads\062022_fcr50_0005.cnv
# alignctd_adv = dz/dtM 1.000, sbeox0PS 1.000, specc 1.000, c0uS/cm 1.000, flECO-AFL 1.000, ph 1.000, orp 1.000, turbWETntu0 1.000                                                                                                   
# file_type = ascii
*END*
     -0.591 4.3139e-20     7.5855     85.140      0.109   0.100087    -0.1018     -2.471 -1240.7455 4.4110e+02     0.0224     -0.579     -0.840    21.0394 0.0000e+00
     -0.590 3.9217e-21     7.5843     85.155      0.094   0.086277    -0.0969     -2.471 -1240.7455 4.2300e+02    -0.0007     -0.578     -0.839    21.0399 0.0000e+00
     -0.590 3.5652e-22     7.5814     85.159      0.106   0.097474    -0.0775     -2.471 -1240.7455 4.1101e+02     0.0368     -0.579     -0.839    21.0404 0.0000e+00
     -0.591 3.2410e-23     7.5834     85.128      0.118   0.108869    -0.0751     -2.471 -1240.7455 4.1532e+02     0.0321     -0.579     -0.840    21.0406 0.0000e+00
     -0.591 2.9464e-24     7.5830     85.113      0.106   0.097464    -0.0766     -2.471 -1240.7455 4.2419e+02     0.0107     -0.579     -0.840    21.0406 0.0000e+00
     -0.590 2.6786e-25     7.5848     85.143      0.094   0.086172    -0.0708     -2.471 -1240.7455 4.2911e+02     0.0509     -0.578     -0.839    21.0410 0.0000e+00
     -0.590 2.4351e-26     7.5876     85.170      0.107   0.098935    -0.0717     -2.471 -1240.7455 4.3379e+02     0.0397     -0.579     -0.839    21.0418 0.0000e+00
     -0.590 2.2137e-27     7.5816     85.181      0.136   0.125188    -0.0790     -2.471 -1240.7455 4.3896e+02    -0.0228     -0.579     -0.840    21.0425 0.0000e+00
     -0.590 2.0125e-28     7.5784     85.191      0.163   0.150394    -0.0768     -2.471 -1240.7455 4.4205e+02    -0.0551     -0.578     -0.839    21.0426 0.0000e+00
     -0.590 1.8320e-29     7.5845     85.171      0.163   0.150498    -0.0692     -2.471 -1240.7455 4.4807e+02    -0.1114     -0.579     -0.840    21.0428 0.0000e+00
     -0.590 1.9418e-30     7.5870     85.161      0.137   0.126443    -0.0697     -2.471 -1240.7455 4.6146e+02    -0.2258     -0.578     -0.839    21.0430 0.0000e+00
     -0.591 3.2163e-30     7.5856     85.190      0.122   0.112748    -0.0750     -2.471 -1240.7455 4.7554e+02    -0.2770     -0.579     -0.840    21.0429 0.0000e+00
     -0.591 3.3730e-29     7.5901     85.202      0.121   0.111513    -0.0755     -2.471 -1240.7455 4.8382e+02    -0.2176     -0.579     -0.840    21.0430 0.0000e+00
     -0.591 3.7088e-28     7.5858     85.193      0.121   0.111503    -0.0754     -2.471 -1240.7455 4.8672e+02    -0.1565     -0.579     -0.839    21.0434 0.0000e+00
     -0.591 4.0796e-27     7.5818     85.187      0.122   0.112633    -0.0814     -2.470 -1240.7455 4.8762e+02    -0.1528     -0.579     -0.840    21.0440 0.0000e+00
     -0.591 4.4876e-26     7.5895     85.182      0.136   0.125178    -0.0901     -2.470 -1240.7455 4.9115e+02    -0.1729     -0.579     -0.840    21.0442 0.0000e+00
     -0.591 4.9364e-25     7.5892     85.182      0.148   0.136583    -0.0893     -2.470 -1240.7455 5.0050e+02    -0.1603     -0.579     -0.840    21.0445 0.0000e+00
     -0.591 5.4300e-24     7.5871     85.184      0.135   0.123933    -0.0716     -2.470 -1240.7455 5.1455e+02    -0.1715     -0.579     -0.840    21.0450 0.0000e+00
     -0.591 5.9730e-23     7.5875     85.184      0.108   0.098822    -0.0678     -2.470 -1240.7455 5.2615e+02    -0.2403     -0.579     -0.840    21.0452 0.0000e+00
     -0.591 6.5703e-22     7.5862     85.176      0.094   0.086162    -0.0767     -2.470 -1240.7455 5.2505e+02    -0.2398     -0.579     -0.840    21.0452 0.0000e+00
     -0.591 7.2273e-21     7.5868     85.171      0.106   0.097472    -0.0715     -2.470 -1240.7455 5.0616e+02    -0.1658     -0.579     -0.839    21.0457 0.0000e+00
     -0.591 7.9501e-20     7.5864     85.178      0.118   0.108971    -0.0797     -2.470 -1240.7455 4.7067e+02    -0.1657     -0.579     -0.840    21.0461 0.0000e+00
     -0.591 8.7451e-19     7.5873     85.183      0.108   0.098593    -0.0920     -2.470 -1240.7455 4.1813e+02    -0.2389     -0.579     -0.839    21.0466 0.0000e+00
     -0.591 9.6196e-18     7.5858     85.176      0.108   0.098592    -0.0788     -2.470 -1240.7455 3.5314e+02    -0.2641     -0.579     -0.840    21.0469 0.0000e+00
     -0.591 1.0582e-16     7.5847     85.168      0.119   0.108961    -0.0698     -2.470 -1240.7455 2.9277e+02    -0.2318     -0.579     -0.840    21.0469 0.0000e+00
     -0.590 1.1640e-15     7.5861     85.166      0.106   0.097357    -0.0828     -2.470 -1240.7455 2.4779e+02    -0.1572     -0.578     -0.839    21.0467 0.0000e+00
     -0.590 1.2804e-14     7.5872     85.158      0.092   0.084897    -0.0859     -2.470 -1240.7455 2.1732e+02    -0.0445     -0.578     -0.838    21.0468 0.0000e+00
     -0.590 1.4084e-13     7.5860     85.154      0.092   0.084906    -0.0748     -2.470 -1240.7455 1.9999e+02     0.0380     -0.579     -0.839    21.0470 0.0000e+00
     -0.590 1.5492e-12     7.5844     85.161      0.106   0.097461    -0.0734     -2.470 -1240.7455 1.9505e+02     0.0209     -0.579     -0.839    21.0472 0.0000e+00
