* Sea-Bird SBE19plus  Data File:
* FileName = C:\R\Reservoirs\Data\DataNotYetUploadedToEDI\Raw_CTD\RawDownloads\062623_fcr50_S8188_0010.hex
* Software version 2.8.0.119
* Temperature SN = 8188
* Conductivity SN = 8188
* System UpLoad Time = Jul 03 2023 16:33:13
* <ApplicationData>
* <Seaterm232>
* <SoftwareVersion>2.8.0.119</SoftwareVersion>
* <BuildDate>07-Nov-2018</BuildDate>
* </Seaterm232>
* </ApplicationData>
* <InstrumentState>
* <HardwareData DeviceType='SBE19plus' SerialNumber='01908188'>
*
*    <Manufacturer>Sea-Bird Electronics, Inc.</Manufacturer>
*
*    <FirmwareVersion>3.1.8</FirmwareVersion>
*
*    <FirmwareDate>Mar  9 2016 16:22:29</FirmwareDate>
*
*    <CommandSetVersion>1.4</CommandSetVersion>
*
*    <PCBAssembly PCBSerialNum='260079' AssemblyNum='41054K'/>
*
*    <PCBAssembly PCBSerialNum='260083' AssemblyNum='41059E'/>
*
*    <PCBAssembly PCBSerialNum='260085' AssemblyNum='41606B'/>
*
*    <PCBAssembly PCBSerialNum='260081' AssemblyNum='41967C'/>
*
*    <MfgDate>30 Mar 2022</MfgDate>
*
*    <InternalSensors>
*
*       <Sensor id='Main Temperature'>
*
*          <type>temperature0</type>
*
*          <SerialNumber>01908188</SerialNumber>
*
*       </Sensor>
*
*       <Sensor id='Main Conductivity'>
*
*          <type>conductivity-0</type>
*
*          <SerialNumber>01908188</SerialNumber>
*
*       </Sensor>
*
*       <Sensor id='Main Pressure'>
*
*          <type>strain-0</type>
*
*          <SerialNumber>12220741</SerialNumber>
*
*       </Sensor>
*
*    </InternalSensors>
*
*    <ExternalSensors>
*
*       <Sensor id='volt 0'>
*
*          <type>CHL</type>
*
*          <SerialNumber>FLNTURT-7096</SerialNumber>
*
*       </Sensor>
*
*       <Sensor id='volt 1'>
*
*          <type>NTU</type>
*
*          <SerialNumber>FLNTURT-7096</SerialNumber>
*
*       </Sensor>
*
*       <Sensor id='volt 2'>
*
*          <type>OXY</type>
*
*          <SerialNumber>43-4269</SerialNumber>
*
*       </Sensor>
*
*       <Sensor id='volt 3'>
*
*          <type>not assigned</type>
*
*          <SerialNumber>not assigned</SerialNumber>
*
*       </Sensor>
*
*       <Sensor id='volt 4'>
*
*          <type>PAR</type>
*
*          <SerialNumber>PARLOGICSW-2209</SerialNumber>
*
*       </Sensor>
*
*       <Sensor id='volt 5'>
*
*          <type>not assigned</type>
*
*          <SerialNumber>not assigned</SerialNumber>
*
*       </Sensor>
*
*       <Sensor id='serial'>
*
*          <type>WETLABS</type>
*
*          <SerialNumber>FL3-7350</SerialNumber>
*
*       </Sensor>
*
*    </ExternalSensors>
*
* </HardwareData>
* <StatusData DeviceType='SBE19plus' SerialNumber='01908188'>
*
*    <DateTime>2023-07-03T16:29:20</DateTime>
*
*    <LoggingState>not logging</LoggingState>
*
*    <EventSummary numEvents='0'/>
*
*    <Power>
*
*       <vMain>12.2</vMain>
*
*       <vLith>8.8</vLith>
*
*       <iMain>61.8</iMain>
*
*       <iPump>48.2</iPump>
*
*       <iExt01>22.4</iExt01>
*
*       <iExt2345>20.3</iExt2345>
*
*       <iSerial>45.4</iSerial>
*
*    </Power>
*
*    <MemorySummary>
*
*       <Bytes>665325</Bytes>
*
*       <Samples>26613</Samples>
*
*       <SamplesFree>2605312</SamplesFree>
*
*       <SampleLength>25</SampleLength>
*
*       <Profiles>25</Profiles>
*
*    </MemorySummary>
*
* </StatusData>
* <ConfigurationData DeviceType='SBE19plus' SerialNumber='01908188'>
*
*    <ProfileMode>
*
*       <ScansToAverage>1</ScansToAverage>
*
*       <MinimumCondFreq>5</MinimumCondFreq>
*
*       <PumpDelay>40</PumpDelay>
*
*       <AutoRun>no</AutoRun>
*
*       <IgnoreSwitch>no</IgnoreSwitch>
*
*    </ProfileMode>
*
*    <Battery>
*
*       <Type>alkaline</Type>
*
*       <CutOff>7.5</CutOff>
*
*    </Battery>
*
*    <DataChannels>
*
*       <ExtVolt0>yes</ExtVolt0>
*
*       <ExtVolt1>yes</ExtVolt1>
*
*       <ExtVolt2>yes</ExtVolt2>
*
*       <ExtVolt3>no</ExtVolt3>
*
*       <ExtVolt4>yes</ExtVolt4>
*
*       <ExtVolt5>no</ExtVolt5>
*
*       <SBE38>no</SBE38>
*
*       <WETLABS>yes</WETLABS>
*
*       <OPTODE>no</OPTODE>
*
*       <SBE63>no</SBE63>
*
*       <SeaFET>no</SeaFET>
*
*       <GTD>no</GTD>
*
*    </DataChannels>
*
*    <EchoCharacters>yes</EchoCharacters>
*
*    <OutputExecutedTag>yes</OutputExecutedTag>
*
*    <OutputFormat>raw HEX</OutputFormat>
*
* </ConfigurationData>
* <CalibrationCoefficients DeviceType='SBE19plus' SerialNumber='01908188'>
*
*    <Calibration format='TEMP1' id='Main Temperature'>
*
*       <SerialNum>01908188</SerialNum>
*
*       <CalDate>21-Aug-22</CalDate>
*
*       <TA0>1.265284e-03</TA0>
*
*       <TA1>2.691806e-04</TA1>
*
*       <TA2>-5.655711e-07</TA2>
*
*       <TA3>1.602369e-07</TA3>
*
*       <TOFFSET>0.000000e+00</TOFFSET>
*
*    </Calibration>
*
*    <Calibration format='WBCOND0' id='Main Conductivity'>
*
*       <SerialNum>01908188</SerialNum>
*
*       <CalDate>21-Aug-22</CalDate>
*
*       <G>-1.009562e+00</G>
*
*       <H>1.439229e-01</H>
*
*       <I>-4.343583e-04</I>
*
*       <J>5.328694e-05</J>
*
*       <CPCOR>-9.570000e-08</CPCOR>
*
*       <CTCOR>3.250000e-06</CTCOR>
*
*       <CSLOPE>1.000000e+00</CSLOPE>
*
*    </Calibration>
*
*    <Calibration format='STRAIN0' id='Main Pressure'>
*
*       <SerialNum>12220741</SerialNum>
*
*       <CalDate>11-Aug-22</CalDate>
*
*       <PA0>1.627942e-01</PA0>
*
*       <PA1>4.835849e-04</PA1>
*
*       <PA2>-3.975488e-12</PA2>
*
*       <PTCA0>5.244803e+05</PTCA0>
*
*       <PTCA1>2.817194e+01</PTCA1>
*
*       <PTCA2>-5.842684e-01</PTCA2>
*
*       <PTCB0>2.522087e+01</PTCB0>
*
*       <PTCB1>5.750000e-04</PTCB1>
*
*       <PTCB2>0.000000e+00</PTCB2>
*
*       <PTEMPA0>-5.709556e+01</PTEMPA0>
*
*       <PTEMPA1>5.248567e+01</PTEMPA1>
*
*       <PTEMPA2>-2.281498e-01</PTEMPA2>
*
*       <POFFSET>-4.700000e-02</POFFSET>
*
*       <PRANGE>1.600000e+02</PRANGE>
*
*    </Calibration>
*
*    <Calibration format='VOLT0' id='Volt 0'>
*
*       <OFFSET>-4.657200e-02</OFFSET>
*
*       <SLOPE>1.248989e+00</SLOPE>
*
*    </Calibration>
*
*    <Calibration format='VOLT0' id='Volt 1'>
*
*       <OFFSET>-4.600800e-02</OFFSET>
*
*       <SLOPE>1.249849e+00</SLOPE>
*
*    </Calibration>
*
*    <Calibration format='VOLT0' id='Volt 2'>
*
*       <OFFSET>-4.668000e-02</OFFSET>
*
*       <SLOPE>1.250379e+00</SLOPE>
*
*    </Calibration>
*
*    <Calibration format='VOLT0' id='Volt 3'>
*
*       <OFFSET>-4.643200e-02</OFFSET>
*
*       <SLOPE>1.251002e+00</SLOPE>
*
*    </Calibration>
*
*    <Calibration format='VOLT0' id='Volt 4'>
*
*       <OFFSET>-4.606100e-02</OFFSET>
*
*       <SLOPE>1.249962e+00</SLOPE>
*
*    </Calibration>
*
*    <Calibration format='VOLT0' id='Volt 5'>
*
*       <OFFSET>-4.642700e-02</OFFSET>
*
*       <SLOPE>1.248530e+00</SLOPE>
*
*    </Calibration>
*
*    <Calibration format='FREQ0' id='external frequency channel'>
*
*       <EXTFREQSF>1.000018e+00</EXTFREQSF>
*
*    </Calibration>
*
* </CalibrationCoefficients>
* <EventCounters DeviceType='SBE19plus' SerialNumber='01908188'>
*
*    <EventSummary numEvents='0'/>
*
* </EventCounters></InstrumentState>
* <Headers>
*
* cast  10 27 Jun 2023 13:56:43 samples 11104 to 11902, avg = 1, stop = mag switch
*
# nquan = 16
# nvalues = 799                         
# units = specified
# name 0 = depFM: Depth [fresh water, m]
# name 1 = dz/dtM: Descent Rate [m/s]
# name 2 = sbeox0Mg/L: Oxygen, SBE 43 [mg/l]
# name 3 = sbeox0PS: Oxygen, SBE 43 [% saturation]
# name 4 = specc: Specific Conductance [uS/cm]
# name 5 = c0uS/cm: Conductivity [uS/cm]
# name 6 = wetCDOM: Fluorescence, WET Labs CDOM [mg/m^3]
# name 7 = flECO-AFL: Fluorescence, WET Labs ECO-AFL/FL [mg/m^3]
# name 8 = flECO-AFL1: Fluorescence, WET Labs ECO-AFL/FL, 2 [mg/m^3]
# name 9 = flECO-AFL2: Fluorescence, WET Labs ECO-AFL/FL, 3 [mg/m^3]
# name 10 = par/sat/log: PAR/Logarithmic, Satlantic
# name 11 = turbWETntu0: Turbidity, WET Labs ECO [NTU]
# name 12 = prdM: Pressure, Strain Gauge [db]
# name 13 = prdE: Pressure, Strain Gauge [psi]
# name 14 = tv290C: Temperature [ITS-90, deg C]
# name 15 = flag:  0.000e+00
# span 0 =     -0.724,      8.030       
# span 1 =     -0.460,      0.143       
# span 2 =    -0.8955,    15.3002       
# span 3 =     -9.013,    182.837       
# span 4 =     -3.625,     61.963       
# span 5 =  -3.188353,  48.061474       
# span 6 =    -4.5000,     7.0200       
# span 7 =    -0.1460,     3.7641       
# span 8 =    -2.1300,     1.4484       
# span 9 =    -2.0304,    21.6576       
# span 10 = 1.1587e-01, 1.1632e+03      
# span 11 =    -0.4985,   154.1916      
# span 12 =     -0.710,      7.874      
# span 13 =     -1.029,     11.421      
# span 14 =    10.5158,    24.5655      
# span 15 = 0.0000e+00, 0.0000e+00      
# interval = seconds: 0.25
# start_time = Jun 27 2023 13:56:43 [Instrument's time stamp, header]
# bad_flag = -9.990e-29
# <Sensors count="10" >
#   <sensor Channel="1" >
#     <!-- Count, Temperature -->
#     <TemperatureSensor SensorID="58" >
#       <SerialNumber>8188</SerialNumber>
#       <CalibrationDate>21-Aug-22</CalibrationDate>
#       <A0>1.26528397e-003</A0>
#       <A1>2.69180636e-004</A1>
#       <A2>-5.65571102e-007</A2>
#       <A3>1.60236871e-007</A3>
#       <Slope>1.00000000</Slope>
#       <Offset>0.0000</Offset>
#     </TemperatureSensor>
#   </sensor>
#   <sensor Channel="2" >
#     <!-- Frequency 0, Conductivity -->
#     <ConductivitySensor SensorID="3" >
#       <SerialNumber>8188</SerialNumber>
#       <CalibrationDate>21-Aug-22</CalibrationDate>
#       <UseG_J>1</UseG_J>
#       <!-- Cell const and series R are applicable only for wide range sensors. -->
#       <SeriesR>0.0000</SeriesR>
#       <CellConst>2000.0000</CellConst>
#       <ConductivityType>0</ConductivityType>
#       <Coefficients equation="0" >
#         <A>0.00000000e+000</A>
#         <B>0.00000000e+000</B>
#         <C>0.00000000e+000</C>
#         <D>0.00000000e+000</D>
#         <M>0.0</M>
#         <CPcor>-9.57000000e-008</CPcor>
#       </Coefficients>
#       <Coefficients equation="1" >
#         <G>-1.00956200e+000</G>
#         <H>1.43922862e-001</H>
#         <I>-4.34358337e-004</I>
#         <J>5.32869425e-005</J>
#         <CPcor>-9.57000000e-008</CPcor>
#         <CTcor>3.2500e-006</CTcor>
#         <!-- WBOTC not applicable unless ConductivityType = 1. -->
#         <WBOTC>0.00000000e+000</WBOTC>
#       </Coefficients>
#       <Slope>1.00000000</Slope>
#       <Offset>0.00000</Offset>
#     </ConductivitySensor>
#   </sensor>
#   <sensor Channel="3" >
#     <!-- Count, Pressure, Strain Gauge -->
#     <PressureSensor SensorID="46" >
#       <SerialNumber>8188</SerialNumber>
#       <CalibrationDate>11-Aug-22</CalibrationDate>
#       <PA0>1.62794185e-001</PA0>
#       <PA1>4.83584930e-004</PA1>
#       <PA2>-3.97548787e-012</PA2>
#       <PTEMPA0>-5.70955636e+001</PTEMPA0>
#       <PTEMPA1>5.24856726e+001</PTEMPA1>
#       <PTEMPA2>-2.28149804e-001</PTEMPA2>
#       <PTCA0>5.24480263e+005</PTCA0>
#       <PTCA1>2.81719406e+001</PTCA1>
#       <PTCA2>-5.84268386e-001</PTCA2>
#       <PTCB0>2.52208750e+001</PTCB0>
#       <PTCB1>5.75000000e-004</PTCB1>
#       <PTCB2>0.00000000e+000</PTCB2>
#       <Offset>0.000000</Offset>
#     </PressureSensor>
#   </sensor>
#   <sensor Channel="4" >
#     <!-- A/D voltage 0, Fluorometer, WET Labs ECO-AFL/FL -->
#     <FluoroWetlabECO_AFL_FL_Sensor SensorID="20" >
#       <SerialNumber>FLNTURT-7096</SerialNumber>
#       <CalibrationDate>01-Sep-2022</CalibrationDate>
#       <ScaleFactor>5.00000000e+001</ScaleFactor>
#       <!-- Dark output -->
#       <Vblank>0.0680</Vblank>
#     </FluoroWetlabECO_AFL_FL_Sensor>
#   </sensor>
#   <sensor Channel="5" >
#     <!-- A/D voltage 1, Turbidity Meter, WET Labs, ECO-NTU -->
#     <TurbidityMeter SensorID="67" >
#       <SerialNumber>FLNTURT-7096</SerialNumber>
#       <CalibrationDate>01-Sep-2022</CalibrationDate>
#       <ScaleFactor>197.000000</ScaleFactor>
#       <!-- Dark output -->
#       <DarkVoltage>0.067000</DarkVoltage>
#     </TurbidityMeter>
#   </sensor>
#   <sensor Channel="6" >
#     <!-- A/D voltage 2, Oxygen, SBE 43 -->
#     <OxygenSensor SensorID="38" >
#       <SerialNumber>4269</SerialNumber>
#       <CalibrationDate>16-Aug-22</CalibrationDate>
#       <Use2007Equation>1</Use2007Equation>
#       <CalibrationCoefficients equation="0" >
#         <!-- Coefficients for Owens-Millard equation. -->
#         <Boc>0.0000</Boc>
#         <Soc>0.0000e+000</Soc>
#         <offset>0.0000</offset>
#         <Pcor>0.00e+000</Pcor>
#         <Tcor>0.0000</Tcor>
#         <Tau>0.0</Tau>
#       </CalibrationCoefficients>
#       <CalibrationCoefficients equation="1" >
#         <!-- Coefficients for Sea-Bird equation - SBE calibration in 2007 and later. -->
#         <Soc>4.2506e-001</Soc>
#         <offset>-0.4922</offset>
#         <A>-4.5893e-003</A>
#         <B> 1.8653e-004</B>
#         <C>-2.0781e-006</C>
#         <D0> 2.5826e+000</D0>
#         <D1> 1.92634e-004</D1>
#         <D2>-4.64803e-002</D2>
#         <E> 3.6000e-002</E>
#         <Tau20> 2.3100</Tau20>
#         <H1>-3.3000e-002</H1>
#         <H2> 5.0000e+003</H2>
#         <H3> 1.4500e+003</H3>
#       </CalibrationCoefficients>
#     </OxygenSensor>
#   </sensor>
#   <sensor Channel="7" >
#     <!-- A/D voltage 3, PAR/Logarithmic, Satlantic -->
#     <PARLog_SatlanticSensor SensorID="76" >
#       <SerialNumber>2209</SerialNumber>
#       <CalibrationDate>14-Jan-2022</CalibrationDate>
#       <a0>9.8861e-001</a0>
#       <a1>8.0845e-001</a1>
#       <Im>1.3589e+000</Im>
#       <Multiplier>1.0000e+000</Multiplier>
#     </PARLog_SatlanticSensor>
#   </sensor>
#   <sensor Channel="8" >
#     <!-- Serial RS-232, Fluorometer, WET Labs ECO-AFL/FL, 2 -->
#     <FluoroWetlabECO_AFL_FL_Sensor SensorID="20" >
#       <SerialNumber>FL3-7350</SerialNumber>
#       <CalibrationDate>10-Mar-2022</CalibrationDate>
#       <ScaleFactor>4.26000000e-002</ScaleFactor>
#       <!-- Dark output -->
#       <Vblank>50.0000</Vblank>
#     </FluoroWetlabECO_AFL_FL_Sensor>
#   </sensor>
#   <sensor Channel="9" >
#     <!-- Serial RS-232, Fluorometer, WET Labs ECO-AFL/FL, 3 -->
#     <FluoroWetlabECO_AFL_FL_Sensor SensorID="20" >
#       <SerialNumber>FL3-7350</SerialNumber>
#       <CalibrationDate>10-Mar-2022</CalibrationDate>
#       <ScaleFactor>4.23000000e-002</ScaleFactor>
#       <!-- Dark output -->
#       <Vblank>48.0000</Vblank>
#     </FluoroWetlabECO_AFL_FL_Sensor>
#   </sensor>
#   <sensor Channel="10" >
#     <!-- Serial RS-232, Fluorometer, WET Labs ECO CDOM -->
#     <FluoroWetlabCDOM_Sensor SensorID="19" >
#       <SerialNumber>FL3-7350</SerialNumber>
#       <CalibrationDate>10-Mar-2022</CalibrationDate>
#       <ScaleFactor>0.090</ScaleFactor>
#       <!-- Dark output -->
#       <Vblank>50.000</Vblank>
#     </FluoroWetlabCDOM_Sensor>
#   </sensor>
# </Sensors>
# datcnv_date = Jul 03 2023 16:59:40, 7.26.7.129 [datcnv_vars = 15]
# datcnv_in = C:\R\Reservoirs\Data\DataNotYetUploadedToEDI\Raw_CTD\RawDownloads\062723_fcrXX_S8188010.hex C:\R\Reservoirs\Data\DataNotYetUploadedToEDI\Raw_CTD\RawDownloads\SBE19plusV2_8188_start20221003.xmlcon
# datcnv_skipover = 0
# datcnv_ox_hysteresis_correction = yes
# datcnv_ox_tau_correction = yes
# filter_date = Jul 03 2023 17:00:14, 7.26.7.129
# filter_in = C:\R\Reservoirs\Data\DataNotYetUploadedToEDI\Raw_CTD\RawDownloads\062723_fcrXX_S8188010.cnv
# filter_low_pass_tc_A = 0.500
# filter_low_pass_tc_B = 1.000
# filter_low_pass_A_vars = sbeox0Mg/L sbeox0PS specc c0uS/cm tv290C
# filter_low_pass_B_vars = depFM dz/dtM prdM prdE
# alignctd_date = Jul 03 2023 17:00:42, 7.26.7.129
# alignctd_in = C:\R\Reservoirs\Data\DataNotYetUploadedToEDI\Raw_CTD\RawDownloads\062723_fcrXX_S8188010.cnv
# alignctd_adv = dz/dtM 1.000, sbeox0PS 1.000, specc 1.000, c0uS/cm 1.000, flECO-AFL 1.000, turbWETntu0 1.000                                                                                                                        
# file_type = ascii
*END*
     -0.722 -8.818e-09     8.5524     92.221      0.253   0.222869    -4.5000    -0.0850    -2.1300    -2.0304 5.8017e+02    -0.3182     -0.708     -1.027    19.0184 0.0000e+00
     -0.722 -1.134e-08     8.5519     92.231      0.250   0.219679    -4.5000    -0.1002    -2.1300    -2.0304 5.8472e+02    -0.3633     -0.708     -1.027    19.0176 0.0000e+00
     -0.722 -1.458e-08     8.5514     92.242      0.249   0.218747    -4.5000    -0.1155    -2.1300    -2.0304 5.9150e+02    -0.4835     -0.708     -1.027    19.0165 0.0000e+00
     -0.722 -1.874e-08     8.5513     92.250      0.245   0.215868     0.0000    -0.1079    -0.0426     0.0846 5.9175e+02    -0.4685     -0.708     -1.027    19.0152 0.0000e+00
     -0.722 -2.409e-08     8.5518     92.257      0.239   0.210276     0.0000    -0.1079    -0.0426     0.0846 5.9330e+02    -0.4084     -0.708     -1.028    19.0137 0.0000e+00
     -0.722 -3.098e-08     8.5530     92.263      0.232   0.204433     0.0000    -0.1346    -0.0426     0.0846 5.9407e+02    -0.3783     -0.708     -1.028    19.0122 0.0000e+00
     -0.723 -3.983e-08     8.5543     92.268      0.224   0.196782     0.0000    -0.1193    -0.0426     0.0846 5.9601e+02    -0.3783     -0.709     -1.028    19.0108 0.0000e+00
     -0.723 -5.121e-08     8.5553     92.272      0.215   0.189235     0.0000    -0.1193    -0.0426     0.0846 5.9511e+02    -0.3332     -0.709     -1.028    19.0093 0.0000e+00
     -0.723 -6.584e-08     8.5562     92.270      0.213   0.187690     0.0000    -0.1231     0.0000     0.0000 5.9511e+02    -0.3482     -0.709     -1.028    19.0078 0.0000e+00
     -0.723 -8.465e-08     8.5570     92.266      0.218   0.191733     0.0000    -0.1002     0.0000     0.0000 5.9511e+02    -0.4234     -0.709     -1.028    19.0064 0.0000e+00
     -0.723 -1.088e-07     8.5577     92.265      0.221   0.194535     0.0000    -0.0926     0.0000     0.0000 5.9653e+02    -0.4685     -0.709     -1.028    19.0051 0.0000e+00
     -0.723 -1.399e-07     8.5582     92.268      0.224   0.196842     0.0000    -0.1346     0.0000     0.0000 5.9640e+02    -0.4685     -0.709     -1.028    19.0038 0.0000e+00
     -0.723 -1.799e-07     8.5583     92.272      0.227   0.199271     0.0000    -0.1231    -0.0426     0.0000 5.9614e+02    -0.3332     -0.709     -1.028    19.0026 0.0000e+00
     -0.723 -2.313e-07     8.5582     92.275      0.226   0.198514     0.0000    -0.1079    -0.0426     0.0000 5.9718e+02    -0.2581     -0.709     -1.028    19.0014 0.0000e+00
     -0.723 -2.974e-07     8.5583     92.273      0.225   0.198325     0.0000    -0.1155    -0.0426     0.0000 5.9718e+02    -0.2881     -0.709     -1.028    19.0002 0.0000e+00
     -0.723 -3.824e-07     8.5587     92.270      0.226   0.198652     0.0000    -0.0850    -0.0426     0.0000 5.9770e+02    -0.4835     -0.709     -1.028    18.9991 0.0000e+00
     -0.723 -4.916e-07     8.5594     92.269      0.222   0.195628     0.0000    -0.1117     0.0000     0.0846 5.9809e+02    -0.3182     -0.709     -1.028    18.9979 0.0000e+00
     -0.723 -6.321e-07     8.5598     92.272      0.219   0.192402     0.0000    -0.1155     0.0000     0.0846 5.9861e+02    -0.4084     -0.709     -1.028    18.9968 0.0000e+00
     -0.723 -8.127e-07     8.5598     92.276      0.218   0.192067     0.0000    -0.1079     0.0000     0.0846 5.9601e+02    -0.4084     -0.709     -1.028    18.9957 0.0000e+00
     -0.723     -0.000     8.5597     92.276      0.221   0.194535     0.0000    -0.1155     0.0000     0.0846 5.9420e+02    -0.4835     -0.709     -1.028    18.9946 0.0000e+00
     -0.723     -0.000     8.5598     92.273      0.228   0.200462     0.0000    -0.1079     0.0000     0.0423 5.9356e+02    -0.3933     -0.709     -1.028    18.9936 0.0000e+00
     -0.723     -0.000     8.5603     92.270      0.240   0.211429     0.0000    -0.1117     0.0000     0.0423 5.9137e+02    -0.4835     -0.709     -1.029    18.9926 0.0000e+00
     -0.723     -0.000     8.5608     92.268      0.257   0.226407     0.0000    -0.1193     0.0000     0.0423 5.8842e+02    -0.4234     -0.709     -1.029    18.9916 0.0000e+00
