* Sea-Bird SBE19plus  Data File:
* FileName = C:\DATA\062719_bvr50_0002.hex
* Software version 2.8.0.119 SB_Terminal.dll
* Temperature SN = 7809
* Conductivity SN = 7809
* System UpLoad Time = Jun 27 2019 13:50:10
* <ApplicationData>
* <Seaterm232>
* <SoftwareVersion>2.8.0.119</SoftwareVersion>
* <BuildDate>07-Nov-2018</BuildDate>
* </Seaterm232>
* </ApplicationData>
* cast   2 27 Jun 2019 13:36:18 samples 1250 to 2299, avg = 1, stop = mag switch
# nquan = 16
# nvalues = 945                         
# units = specified
# name 0 = depFM: Depth [fresh water, m]
# name 1 = dz/dtM: Descent Rate [m/s]
# name 2 = sbeox0Mg/L: Oxygen, SBE 43 [mg/l]
# name 3 = sbeox0PS: Oxygen, SBE 43 [% saturation]
# name 4 = specc: Specific Conductance [uS/cm]
# name 5 = c0uS/cm: Conductivity [uS/cm]
# name 6 = flECO-AFL: Fluorescence, WET Labs ECO-AFL/FL [mg/m^3]
# name 7 = ph: pH
# name 8 = orp: Oxidation Reduction Potential [mV]
# name 9 = par/sat/log: PAR/Logarithmic, Satlantic
# name 10 = turbWETntu0: Turbidity, WET Labs ECO [NTU]
# name 11 = prdM: Pressure, Strain Gauge [db]
# name 12 = prdE: Pressure, Strain Gauge [psi]
# name 13 = tv290C: Temperature [ITS-90, deg C]
# name 14 = density00: Density [density, kg/m^3]
# name 15 = flag:  0.000e+00
# span 0 =     -0.577,     10.725       
# span 1 =     -0.269,      0.292       
# span 2 =    -0.8522,     9.8860       
# span 3 =     -7.647,    113.465       
# span 4 =     26.221,    144.386       
# span 5 =  20.940483,  96.465438       
# span 6 =    -0.4830,   236.9481       
# span 7 =      6.254,      8.901       
# span 8 =    69.8532,   408.1766       
# span 9 = 1.2320e-01, 2.5078e+03       
# span 10 =    -1.7232,   136.3903      
# span 11 =     -0.574,     10.518      
# span 12 =     -0.833,     15.255      
# span 13 =     8.3635,    35.9575      
# span 14 =   993.7100,   999.9299      
# span 15 = 0.0000e+00, 0.0000e+00      
# interval = seconds: 0.25
# start_time = Jun 27 2019 13:36:18 [Instrument's time stamp, header]
# bad_flag = -9.990e-29
# <Sensors count="9" >
#   <sensor Channel="1" >
#     <!-- Count, Temperature -->
#     <TemperatureSensor SensorID="58" >
#       <SerialNumber>7809</SerialNumber>
#       <CalibrationDate>24-Mar-19</CalibrationDate>
#       <A0>1.21792325e-003</A0>
#       <A1>2.81669265e-004</A1>
#       <A2>-1.60333336e-006</A2>
#       <A3>1.98414625e-007</A3>
#       <Slope>1.00000000</Slope>
#       <Offset>0.0000</Offset>
#     </TemperatureSensor>
#   </sensor>
#   <sensor Channel="2" >
#     <!-- Frequency 0, Conductivity -->
#     <ConductivitySensor SensorID="3" >
#       <SerialNumber>7809</SerialNumber>
#       <CalibrationDate>24-Mar-19</CalibrationDate>
#       <UseG_J>1</UseG_J>
#       <!-- Cell const and series R are applicable only for wide range sensors. -->
#       <SeriesR>0.0000</SeriesR>
#       <CellConst>2000.0000</CellConst>
#       <ConductivityType>0</ConductivityType>
#       <Coefficients equation="0" >
#         <A>0.00000000e+000</A>
#         <B>0.00000000e+000</B>
#         <C>0.00000000e+000</C>
#         <D>0.00000000e+000</D>
#         <M>0.0</M>
#         <CPcor>-9.57000000e-008</CPcor>
#       </Coefficients>
#       <Coefficients equation="1" >
#         <G>-1.00589325e+000</G>
#         <H>1.26816302e-001</H>
#         <I>-1.51560448e-004</I>
#         <J>2.67137274e-005</J>
#         <CPcor>-9.57000000e-008</CPcor>
#         <CTcor>3.2500e-006</CTcor>
#         <!-- WBOTC not applicable unless ConductivityType = 1. -->
#         <WBOTC>0.00000000e+000</WBOTC>
#       </Coefficients>
#       <Slope>1.00000000</Slope>
#       <Offset>0.00000</Offset>
#     </ConductivitySensor>
#   </sensor>
#   <sensor Channel="3" >
#     <!-- Count, Pressure, Strain Gauge -->
#     <PressureSensor SensorID="46" >
#       <SerialNumber>7809</SerialNumber>
#       <CalibrationDate>11-Mar-19</CalibrationDate>
#       <PA0>4.56561833e-002</PA0>
#       <PA1>4.85095118e-004</PA1>
#       <PA2>-2.88327090e-012</PA2>
#       <PTEMPA0>-5.48784562e+001</PTEMPA0>
#       <PTEMPA1>5.53756816e+001</PTEMPA1>
#       <PTEMPA2>-5.86727098e-001</PTEMPA2>
#       <PTCA0>5.25246745e+005</PTCA0>
#       <PTCA1>1.22304214e+001</PTCA1>
#       <PTCA2>-3.56745036e-001</PTCA2>
#       <PTCB0>2.51668750e+001</PTCB0>
#       <PTCB1>3.75000000e-004</PTCB1>
#       <PTCB2>0.00000000e+000</PTCB2>
#       <Offset>0.000000</Offset>
#     </PressureSensor>
#   </sensor>
#   <sensor Channel="4" >
#     <!-- A/D voltage 0, Oxygen, SBE 43 -->
#     <OxygenSensor SensorID="38" >
#       <SerialNumber>0434</SerialNumber>
#       <CalibrationDate>13-Apr-19</CalibrationDate>
#       <Use2007Equation>1</Use2007Equation>
#       <CalibrationCoefficients equation="0" >
#         <!-- Coefficients for Owens-Millard equation. -->
#         <Boc>0.0000</Boc>
#         <Soc>0.0000e+000</Soc>
#         <offset>0.0000</offset>
#         <Pcor>0.00e+000</Pcor>
#         <Tcor>0.0000</Tcor>
#         <Tau>0.0</Tau>
#       </CalibrationCoefficients>
#       <CalibrationCoefficients equation="1" >
#         <!-- Coefficients for Sea-Bird equation - SBE calibration in 2007 and later. -->
#         <Soc>4.2007e-001</Soc>
#         <offset>-0.6109</offset>
#         <A>-4.3656e-003</A>
#         <B> 1.7017e-004</B>
#         <C>-2.5341e-006</C>
#         <D0> 2.5826e+000</D0>
#         <D1> 1.92634e-004</D1>
#         <D2>-4.64803e-002</D2>
#         <E> 3.6000e-002</E>
#         <Tau20> 1.1800</Tau20>
#         <H1>-3.3000e-002</H1>
#         <H2> 5.0000e+003</H2>
#         <H3> 1.4500e+003</H3>
#       </CalibrationCoefficients>
#     </OxygenSensor>
#   </sensor>
#   <sensor Channel="5" >
#     <!-- A/D voltage 1, PAR/Logarithmic, Satlantic -->
#     <PARLog_SatlanticSensor SensorID="76" >
#       <SerialNumber>1122</SerialNumber>
#       <CalibrationDate>08-May-2019</CalibrationDate>
#       <a0>9.7456e-001</a0>
#       <a1>8.1640e-001</a1>
#       <Im>1.3589e+000</Im>
#       <Multiplier>1.0000e+000</Multiplier>
#     </PARLog_SatlanticSensor>
#   </sensor>
#   <sensor Channel="6" >
#     <!-- A/D voltage 2, pH -->
#     <pH_Sensor SensorID="43" >
#       <SerialNumber>0363</SerialNumber>
#       <CalibrationDate>15-Apr-19</CalibrationDate>
#       <Slope>4.5952</Slope>
#       <Offset>2.5370</Offset>
#     </pH_Sensor>
#   </sensor>
#   <sensor Channel="7" >
#     <!-- A/D voltage 3, Oxidation Reduction Potential -->
#     <OxidationReductionPotentialSensor SensorID="41" >
#       <SerialNumber>0363</SerialNumber>
#       <CalibrationDate>15-Apr-19</CalibrationDate>
#       <B>2.499480</B>
#       <M>-0.496195</M>
#       <Offset>0.0</Offset>
#     </OxidationReductionPotentialSensor>
#   </sensor>
#   <sensor Channel="8" >
#     <!-- A/D voltage 4, Fluorometer, WET Labs ECO-AFL/FL -->
#     <FluoroWetlabECO_AFL_FL_Sensor SensorID="20" >
#       <SerialNumber>FLNTURT-2496</SerialNumber>
#       <CalibrationDate>08-May-2019</CalibrationDate>
#       <ScaleFactor>5.00000000e+001</ScaleFactor>
#       <!-- Dark output -->
#       <Vblank>0.0550</Vblank>
#     </FluoroWetlabECO_AFL_FL_Sensor>
#   </sensor>
#   <sensor Channel="9" >
#     <!-- A/D voltage 5, Turbidity Meter, WET Labs, ECO-NTU -->
#     <TurbidityMeter SensorID="67" >
#       <SerialNumber>FLNTURT-2496</SerialNumber>
#       <CalibrationDate>08-May-2019</CalibrationDate>
#       <ScaleFactor>189.000000</ScaleFactor>
#       <!-- Dark output -->
#       <DarkVoltage>0.071000</DarkVoltage>
#     </TurbidityMeter>
#   </sensor>
# </Sensors>
# datcnv_date = Jun 27 2019 13:51:58, 7.26.7.129 [datcnv_vars = 15]
# datcnv_in = C:\DATA\062719_bvr50.hex C:\DATA\SBE19plusV2_7809.xmlcon
# datcnv_skipover = 0
# datcnv_ox_hysteresis_correction = yes
# datcnv_ox_tau_correction = yes
# filter_date = Jun 27 2019 13:52:20, 7.26.7.129
# filter_in = C:\DATA\062719_bvr50.cnv
# filter_low_pass_tc_A = 0.030
# filter_low_pass_tc_B = 0.150
# filter_low_pass_A_vars = prdM prdE tv290C density00
# filter_low_pass_B_vars = depFM dz/dtM sbeox0Mg/L sbeox0PS specc c0uS/cm flECO-AFL ph orp par/sat/log turbWETntu0
# alignctd_date = Jun 27 2019 13:52:37, 7.26.7.129
# alignctd_in = C:\DATA\062719_bvr50.cnv
# alignctd_adv = dz/dtM 1.000, sbeox0Mg/L 1.000, sbeox0PS 1.000, specc 1.000, c0uS/cm 1.000, flECO-AFL 1.000, ph 1.000, orp 1.000, turbWETntu0 1.000                                                                                 
# file_type = ascii
*END*
     -0.577      0.145     7.7762    106.251     32.008  36.516576   236.9481      8.209   408.1766 2.3884e+02     6.8252     -0.574     -0.833    35.9056   993.7272 0.0000e+00
     -0.543      0.205     8.0337    106.849     29.484  32.667020   236.9415      8.557   395.5284 2.5604e+02     6.8781     -0.552     -0.801    35.9575   993.7100 0.0000e+00
     -0.467      0.255     8.2731    107.659     28.527  30.857050   176.9295      8.766   386.2199 2.8213e+02     5.4678     -0.468     -0.678    35.5751   993.8501 0.0000e+00
     -0.365      0.287     8.4881    108.694     28.635  30.432223    66.0312      8.871   377.8831 3.5837e+02     2.8169     -0.353     -0.512    33.8146   994.4518 0.0000e+00
     -0.266      0.292     8.6573    109.729     29.698  31.209934     5.5070      8.901   370.3574 4.4756e+02     1.3385     -0.256     -0.370    31.7843   995.1137 0.0000e+00
     -0.181      0.262     8.7690    110.494     30.953  32.327794    -0.0063      8.896   364.2302 4.7906e+02     1.1931     -0.174     -0.251    30.2349   995.5930 0.0000e+00
     -0.112      0.204     8.8313    110.911     31.311  32.589257    -0.4830      8.875   360.0702 9.4431e+02     1.2233     -0.102     -0.149    28.9381   995.9810 0.0000e+00
     -0.064      0.137     8.8534    111.009     31.249  32.467551    -0.2835      8.840   357.1422 1.8877e+03     1.4742     -0.052     -0.075    28.0137   996.2471 0.0000e+00
     -0.044      0.076     8.8461    110.848     31.186  32.379224     0.1526      8.802   354.6397 2.3694e+03     1.8997     -0.033     -0.048    27.4623   996.4034 0.0000e+00
     -0.048      0.030     8.8233    110.510     30.741  31.902014     0.3940      8.769   352.0962 1.8904e+03     2.1401     -0.045     -0.065    27.1812   996.4818 0.0000e+00
     -0.063      0.002     8.7952    110.099     29.962  31.076156     0.4155      8.744   349.1895 9.3963e+02     2.1201     -0.063     -0.091    26.9992   996.5320 0.0000e+00
     -0.075     -0.009     8.7670    109.709     29.188  30.262276     0.4476      8.719   346.5966 4.1722e+02     1.8541     -0.075     -0.108    26.9218   996.5530 0.0000e+00
     -0.080     -0.007     8.7391    109.374     28.741  29.802749     0.5131      8.690   343.9761 3.8487e+02     1.4155     -0.082     -0.119    26.9101   996.5564 0.0000e+00
     -0.078      0.002     8.6973    108.924     28.628  29.707873     0.5485      8.665   341.3390 7.2059e+02     1.1745     -0.078     -0.112    26.8846   996.5632 0.0000e+00
     -0.069      0.009     8.5398    107.035     28.583  29.686235     0.5370      8.645   339.8353 1.1738e+03     1.1359     -0.067     -0.097    26.8489   996.5727 0.0000e+00
     -0.061      0.012     8.2433    103.371     28.490  29.604619     0.4272      8.630   338.7001 1.0103e+03     0.8175     -0.058     -0.084    26.8248   996.5791 0.0000e+00
     -0.056      0.013     7.9772    100.045     28.430  29.545936     0.2351      8.615   336.9051 5.9737e+02     0.2091     -0.053     -0.077    26.8274   996.5783 0.0000e+00
     -0.057      0.013     7.7732     97.467     28.438  29.547750     0.1311      8.594   335.1691 7.2499e+02    -0.1569     -0.055     -0.080    26.8779   996.5644 0.0000e+00
     -0.059      0.013     7.5239     94.312     28.462  29.563095     0.1221      8.568   333.3686 9.5874e+02    -0.1672     -0.060     -0.088    26.9311   996.5498 0.0000e+00
     -0.058      0.013     7.2341     90.657     28.510  29.604554     0.1008      8.550   331.1394 6.9610e+02     0.3802     -0.059     -0.086    26.9571   996.5426 0.0000e+00
     -0.052      0.008     6.9923     87.612     28.576  29.668309     0.0633      8.547   329.2102 4.4355e+02     1.3492     -0.053     -0.076    26.9647   996.5406 0.0000e+00
     -0.043     -0.006     6.8436     85.739     28.549  29.635999     0.0510      8.551   327.4217 7.2794e+02     1.8474     -0.042     -0.061    26.9464   996.5457 0.0000e+00
     -0.035     -0.028     6.7568     84.644     28.450  29.531138     0.0557      8.553   325.6901 1.4086e+03     1.8487     -0.031     -0.044    26.9261   996.5513 0.0000e+00
     -0.039     -0.053     6.6767     83.642     28.644  29.732881     0.0515      8.548   324.7930 1.9423e+03     1.5942     -0.031     -0.045    26.9110   996.5555 0.0000e+00
     -0.059     -0.073     6.5848     82.508     29.365  30.488974     0.0087      8.538   324.7486 1.6758e+03     0.8026     -0.051     -0.075    26.9037   996.5575 0.0000e+00
     -0.096     -0.084     6.5265     81.802     30.149  31.312574    -0.0708      8.528   324.6370 8.6562e+02    -0.1526     -0.092     -0.134    26.8979   996.5587 0.0000e+00
     -0.136     -0.084     6.5493     82.159     30.429  31.632416    -0.1217      8.519   323.8739 5.0947e+02    -0.5819     -0.138     -0.200    26.8940   996.5595 0.0000e+00
     -0.163     -0.072     6.6385     83.432     30.243  31.500757    -0.1125      8.508   322.9223 9.5722e+02    -0.5856     -0.165     -0.239    26.8851   996.5619 0.0000e+00
     -0.176     -0.052     6.7469     84.924     29.947  31.243726     0.0755      8.491   322.2504 1.4219e+03    -0.2309     -0.175     -0.254    26.9098   996.5554 0.0000e+00
     -0.179     -0.029     6.8441     86.195     29.816  31.126425     0.4080      8.471   321.7738 1.1229e+03     0.3972     -0.178     -0.257    26.9177   996.5535 0.0000e+00
     -0.177     -0.011     6.9114     87.071     29.839  31.161241     0.5872      8.451   321.2891 6.2267e+02     0.7491     -0.174     -0.252    26.9316   996.5498 0.0000e+00
     -0.174     -0.001     6.9292     87.334     29.821  31.157066     0.6042      8.431   320.6917 4.7262e+02     0.8128     -0.171     -0.247    27.0855   996.5074 0.0000e+00
     -0.172      0.004     6.8842     86.796     29.733  31.075970     0.5609      8.415   320.1434 4.3369e+02     0.9377     -0.167     -0.242    27.1891   996.4787 0.0000e+00
     -0.172      0.007     6.7762     85.436     29.726  31.069086     0.4709      8.401   319.6499 3.9411e+02     1.1437     -0.168     -0.244    27.1877   996.4790 0.0000e+00
     -0.173      0.008     6.6212     83.471     29.735  31.073838     0.4184      8.386   319.0271 3.5974e+02     1.2393     -0.171     -0.247    27.2052   996.4742 0.0000e+00
     -0.172      0.009     6.4464     81.261     29.551  30.879595     0.4114      8.371   318.2918 3.4082e+02     1.1439     -0.170     -0.246    27.2353   996.4659 0.0000e+00
     -0.167      0.012     6.2822     79.173     29.253  30.560665     0.4134      8.357   317.6425 3.3763e+02     0.3501     -0.165     -0.239    27.2611   996.4587 0.0000e+00
     -0.161      0.017     6.1570     77.555     29.046  30.326879     0.4164      8.344   317.2849 3.3797e+02    -1.0172     -0.156     -0.227    27.2562   996.4601 0.0000e+00
     -0.158      0.021     6.0819     76.585     29.004  30.273710     0.4207      8.332   317.0656 3.3745e+02    -1.7227     -0.154     -0.223    27.2413   996.4643 0.0000e+00
     -0.154      0.022     6.0477     76.168     29.021  30.298503     0.4221      8.318   316.7978 3.3784e+02    -1.7232     -0.152     -0.221    27.2452   996.4631 0.0000e+00
     -0.147      0.022     6.0423     76.109     28.967  30.245961     0.3204      8.307   316.2837 3.3885e+02    -1.2851     -0.145     -0.210    27.2382   996.4650 0.0000e+00
     -0.138      0.022     6.0530     76.206     28.887  30.146045     0.1187      8.298   315.5816 3.3927e+02    -0.4901     -0.135     -0.196    27.1946   996.4770 0.0000e+00
     -0.131      0.024     6.0654     76.296     28.875  30.105629     0.0037      8.292   315.1062 3.4107e+02    -0.0419     -0.128     -0.185    27.1648   996.4853 0.0000e+00
     -0.128      0.027     6.0806     76.432     28.989  30.201402    -0.0122      8.281   314.8381 3.6577e+02     0.0374     -0.126     -0.182    27.1966   996.4766 0.0000e+00
     -0.125      0.028     6.1026     76.697     29.139  30.352207    -0.0127      8.264   314.4906 6.5188e+02     0.0756     -0.124     -0.179    27.2185   996.4705 0.0000e+00
     -0.118      0.029     6.1229     76.975     29.060  30.279256     0.0057      8.253   313.9162 1.4194e+03     0.1257     -0.118     -0.172    27.1773   996.4819 0.0000e+00
     -0.106      0.031     6.1505     77.319     28.749  29.953898     0.0374      8.249   313.2275 2.1903e+03     0.2171     -0.105     -0.153    27.1207   996.4976 0.0000e+00
     -0.094      0.035     6.2175     78.115     28.479  29.654333     0.0585      8.236   312.7029 2.2488e+03     0.2952     -0.089     -0.130    27.0698   996.5117 0.0000e+00
     -0.088      0.039     6.3354     79.532     28.367  29.512484     0.0697      8.211   312.3904 1.6899e+03     0.3170     -0.083     -0.121    27.0584   996.5150 0.0000e+00
     -0.083      0.039     6.4694     81.139     28.330  29.444315     0.1302      8.188   312.0313 1.0681e+03     0.0879     -0.085     -0.124    27.1026   996.5027 0.0000e+00
     -0.072      0.034     6.5795     82.424     28.263  29.337661     0.2342      8.184   311.5445 9.5959e+02    -0.3460     -0.074     -0.108    27.1045   996.5022 0.0000e+00
     -0.056      0.028     6.6542     83.254     28.144  29.174611     0.2871      8.192   311.1504 1.5723e+03    -0.5701     -0.053     -0.075    27.0553   996.5157 0.0000e+00
     -0.044      0.021     6.7065     83.807     28.007  28.995603     0.2928      8.204   310.7075 1.9201e+03    -0.5901     -0.040     -0.057    27.0149   996.5268 0.0000e+00
     -0.041      0.016     6.7523     84.294     27.871  28.822883     0.2951      8.214   310.1473 1.3389e+03    -0.5214     -0.039     -0.057    26.9651   996.5405 0.0000e+00
     -0.045      0.012     6.7813     84.598     27.808  28.735851     0.2973      8.213   309.8843 6.2404e+02    -0.3622     -0.044     -0.064    26.8971   996.5591 0.0000e+00
     -0.049      0.010     6.7767     84.519     27.847  28.768080     0.3017      8.201   309.7637 3.8205e+02    -0.2392     -0.050     -0.072    26.8230   996.5793 0.0000e+00
     -0.049      0.010     6.7605     84.326     27.906  28.831866     0.3051      8.192   309.4635 5.7428e+02    -0.1473     -0.051     -0.073    26.7526   996.5985 0.0000e+00
     -0.043      0.012     6.7777     84.536     27.885  28.809173     0.3214      8.187   309.1808 8.2464e+02     0.0277     -0.044     -0.063    26.6962   996.6138 0.0000e+00
     -0.033      0.016     6.8422     85.306     27.776  28.684038     0.3505      8.182   309.0125 7.8019e+02     0.3035     -0.032     -0.046    26.6532   996.6256 0.0000e+00
     -0.027      0.018     6.9282     86.338     27.696  28.587795     0.3620      8.174   308.8913 6.1354e+02     0.5005     -0.025     -0.036    26.6359   996.6303 0.0000e+00
     -0.026      0.019     6.9981     87.187     27.652  28.533735     0.3570      8.166   308.7483 4.5245e+02     0.5413     -0.025     -0.037    26.6581   996.6244 0.0000e+00
     -0.024      0.018     7.0333     87.612     27.599  28.474521     0.3331      8.156   308.5732 6.0436e+02     0.5013     -0.026     -0.036    26.6627   996.6231 0.0000e+00
     -0.019      0.017     7.0387     87.662     27.574  28.442855     0.2812      8.146   308.4087 1.0188e+03     0.3778     -0.020     -0.029    26.6288   996.6322 0.0000e+00
     -0.013      0.017     7.0305     87.542     27.543  28.404635     0.2415      8.135   308.3945 1.4435e+03     0.2609     -0.012     -0.017    26.5972   996.6408 0.0000e+00
