* Sea-Bird SBE19plus  Data File:
* FileName = C:\DATA\070119_fcr_0008.hex
* Software version 2.8.0.119 SB_Terminal.dll
* Temperature SN = 7809
* Conductivity SN = 7809
* System UpLoad Time = Jul 01 2019 16:59:14
* <ApplicationData>
* <Seaterm232>
* <SoftwareVersion>2.8.0.119</SoftwareVersion>
* <BuildDate>07-Nov-2018</BuildDate>
* </Seaterm232>
* </ApplicationData>
* cast   8 01 Jul 2019 11:42:55 samples 11912 to 12434, avg = 1, stop = mag switch
# nquan = 16
# nvalues = 454                         
# units = specified
# name 0 = depFM: Depth [fresh water, m]
# name 1 = dz/dtM: Descent Rate [m/s]
# name 2 = sbeox0Mg/L: Oxygen, SBE 43 [mg/l]
# name 3 = sbeox0PS: Oxygen, SBE 43 [% saturation]
# name 4 = specc: Specific Conductance [uS/cm]
# name 5 = c0uS/cm: Conductivity [uS/cm]
# name 6 = flECO-AFL: Fluorescence, WET Labs ECO-AFL/FL [mg/m^3]
# name 7 = ph: pH
# name 8 = orp: Oxidation Reduction Potential [mV]
# name 9 = par/sat/log: PAR/Logarithmic, Satlantic
# name 10 = turbWETntu0: Turbidity, WET Labs ECO [NTU]
# name 11 = prdM: Pressure, Strain Gauge [db]
# name 12 = prdE: Pressure, Strain Gauge [psi]
# name 13 = tv290C: Temperature [ITS-90, deg C]
# name 14 = density00: Density [density, kg/m^3]
# name 15 = flag:  0.000e+00
# span 0 =     -0.570,      5.414       
# span 1 =     -0.270,      0.307       
# span 2 =     0.3677,    14.0472       
# span 3 =      3.462,    160.700       
# span 4 =      1.055,     41.069       
# span 5 =   1.047477,  37.853509       
# span 6 =    -1.9050,     6.2599       
# span 7 =      7.037,      9.539       
# span 8 =   159.3637,  1240.2295       
# span 9 = 2.4550e+00, 2.9161e+03       
# span 10 =    -0.6093,    93.0587      
# span 11 =     -0.560,      5.310      
# span 12 =     -0.811,      7.701      
# span 13 =    10.9475,    26.9237      
# span 14 =   996.5542,   999.6534      
# span 15 = 0.0000e+00, 0.0000e+00      
# interval = seconds: 0.25
# start_time = Jul 01 2019 11:42:55 [Instrument's time stamp, header]
# bad_flag = -9.990e-29
# <Sensors count="9" >
#   <sensor Channel="1" >
#     <!-- Count, Temperature -->
#     <TemperatureSensor SensorID="58" >
#       <SerialNumber>7809</SerialNumber>
#       <CalibrationDate>24-Mar-19</CalibrationDate>
#       <A0>1.21792325e-003</A0>
#       <A1>2.81669265e-004</A1>
#       <A2>-1.60333336e-006</A2>
#       <A3>1.98414625e-007</A3>
#       <Slope>1.00000000</Slope>
#       <Offset>0.0000</Offset>
#     </TemperatureSensor>
#   </sensor>
#   <sensor Channel="2" >
#     <!-- Frequency 0, Conductivity -->
#     <ConductivitySensor SensorID="3" >
#       <SerialNumber>7809</SerialNumber>
#       <CalibrationDate>24-Mar-19</CalibrationDate>
#       <UseG_J>1</UseG_J>
#       <!-- Cell const and series R are applicable only for wide range sensors. -->
#       <SeriesR>0.0000</SeriesR>
#       <CellConst>2000.0000</CellConst>
#       <ConductivityType>0</ConductivityType>
#       <Coefficients equation="0" >
#         <A>0.00000000e+000</A>
#         <B>0.00000000e+000</B>
#         <C>0.00000000e+000</C>
#         <D>0.00000000e+000</D>
#         <M>0.0</M>
#         <CPcor>-9.57000000e-008</CPcor>
#       </Coefficients>
#       <Coefficients equation="1" >
#         <G>-1.00589325e+000</G>
#         <H>1.26816302e-001</H>
#         <I>-1.51560448e-004</I>
#         <J>2.67137274e-005</J>
#         <CPcor>-9.57000000e-008</CPcor>
#         <CTcor>3.2500e-006</CTcor>
#         <!-- WBOTC not applicable unless ConductivityType = 1. -->
#         <WBOTC>0.00000000e+000</WBOTC>
#       </Coefficients>
#       <Slope>1.00000000</Slope>
#       <Offset>0.00000</Offset>
#     </ConductivitySensor>
#   </sensor>
#   <sensor Channel="3" >
#     <!-- Count, Pressure, Strain Gauge -->
#     <PressureSensor SensorID="46" >
#       <SerialNumber>7809</SerialNumber>
#       <CalibrationDate>11-Mar-19</CalibrationDate>
#       <PA0>4.56561833e-002</PA0>
#       <PA1>4.85095118e-004</PA1>
#       <PA2>-2.88327090e-012</PA2>
#       <PTEMPA0>-5.48784562e+001</PTEMPA0>
#       <PTEMPA1>5.53756816e+001</PTEMPA1>
#       <PTEMPA2>-5.86727098e-001</PTEMPA2>
#       <PTCA0>5.25246745e+005</PTCA0>
#       <PTCA1>1.22304214e+001</PTCA1>
#       <PTCA2>-3.56745036e-001</PTCA2>
#       <PTCB0>2.51668750e+001</PTCB0>
#       <PTCB1>3.75000000e-004</PTCB1>
#       <PTCB2>0.00000000e+000</PTCB2>
#       <Offset>0.000000</Offset>
#     </PressureSensor>
#   </sensor>
#   <sensor Channel="4" >
#     <!-- A/D voltage 0, Oxygen, SBE 43 -->
#     <OxygenSensor SensorID="38" >
#       <SerialNumber>0434</SerialNumber>
#       <CalibrationDate>13-Apr-19</CalibrationDate>
#       <Use2007Equation>1</Use2007Equation>
#       <CalibrationCoefficients equation="0" >
#         <!-- Coefficients for Owens-Millard equation. -->
#         <Boc>0.0000</Boc>
#         <Soc>0.0000e+000</Soc>
#         <offset>0.0000</offset>
#         <Pcor>0.00e+000</Pcor>
#         <Tcor>0.0000</Tcor>
#         <Tau>0.0</Tau>
#       </CalibrationCoefficients>
#       <CalibrationCoefficients equation="1" >
#         <!-- Coefficients for Sea-Bird equation - SBE calibration in 2007 and later. -->
#         <Soc>4.2007e-001</Soc>
#         <offset>-0.6109</offset>
#         <A>-4.3656e-003</A>
#         <B> 1.7017e-004</B>
#         <C>-2.5341e-006</C>
#         <D0> 2.5826e+000</D0>
#         <D1> 1.92634e-004</D1>
#         <D2>-4.64803e-002</D2>
#         <E> 3.6000e-002</E>
#         <Tau20> 1.1800</Tau20>
#         <H1>-3.3000e-002</H1>
#         <H2> 5.0000e+003</H2>
#         <H3> 1.4500e+003</H3>
#       </CalibrationCoefficients>
#     </OxygenSensor>
#   </sensor>
#   <sensor Channel="5" >
#     <!-- A/D voltage 1, PAR/Logarithmic, Satlantic -->
#     <PARLog_SatlanticSensor SensorID="76" >
#       <SerialNumber>1122</SerialNumber>
#       <CalibrationDate>08-May-2019</CalibrationDate>
#       <a0>9.7456e-001</a0>
#       <a1>8.1640e-001</a1>
#       <Im>1.3589e+000</Im>
#       <Multiplier>1.0000e+000</Multiplier>
#     </PARLog_SatlanticSensor>
#   </sensor>
#   <sensor Channel="6" >
#     <!-- A/D voltage 2, pH -->
#     <pH_Sensor SensorID="43" >
#       <SerialNumber>0363</SerialNumber>
#       <CalibrationDate>15-Apr-19</CalibrationDate>
#       <Slope>4.5952</Slope>
#       <Offset>2.5370</Offset>
#     </pH_Sensor>
#   </sensor>
#   <sensor Channel="7" >
#     <!-- A/D voltage 3, Oxidation Reduction Potential -->
#     <OxidationReductionPotentialSensor SensorID="41" >
#       <SerialNumber>0363</SerialNumber>
#       <CalibrationDate>15-Apr-19</CalibrationDate>
#       <B>2.499480</B>
#       <M>-0.496195</M>
#       <Offset>0.0</Offset>
#     </OxidationReductionPotentialSensor>
#   </sensor>
#   <sensor Channel="8" >
#     <!-- A/D voltage 4, Fluorometer, WET Labs ECO-AFL/FL -->
#     <FluoroWetlabECO_AFL_FL_Sensor SensorID="20" >
#       <SerialNumber>FLNTURT-2496</SerialNumber>
#       <CalibrationDate>08-May-2019</CalibrationDate>
#       <ScaleFactor>5.00000000e+001</ScaleFactor>
#       <!-- Dark output -->
#       <Vblank>0.0550</Vblank>
#     </FluoroWetlabECO_AFL_FL_Sensor>
#   </sensor>
#   <sensor Channel="9" >
#     <!-- A/D voltage 5, Turbidity Meter, WET Labs, ECO-NTU -->
#     <TurbidityMeter SensorID="67" >
#       <SerialNumber>FLNTURT-2496</SerialNumber>
#       <CalibrationDate>08-May-2019</CalibrationDate>
#       <ScaleFactor>189.000000</ScaleFactor>
#       <!-- Dark output -->
#       <DarkVoltage>0.071000</DarkVoltage>
#     </TurbidityMeter>
#   </sensor>
# </Sensors>
# datcnv_date = Jul 01 2019 17:02:30, 7.26.7.129 [datcnv_vars = 15]
# datcnv_in = C:\DATA\070119_fcr_0008.hex C:\DATA\SBE19plusV2_7809.xmlcon
# datcnv_skipover = 0
# datcnv_ox_hysteresis_correction = yes
# datcnv_ox_tau_correction = yes
# filter_date = Jul 01 2019 17:02:54, 7.26.7.129
# filter_in = C:\DATA\070119_fcr_0008.cnv
# filter_low_pass_tc_A = 0.030
# filter_low_pass_tc_B = 0.150
# filter_low_pass_A_vars = prdM prdE tv290C density00
# filter_low_pass_B_vars = depFM dz/dtM sbeox0Mg/L sbeox0PS specc c0uS/cm flECO-AFL ph orp par/sat/log turbWETntu0
# alignctd_date = Jul 01 2019 17:03:11, 7.26.7.129
# alignctd_in = C:\DATA\070119_fcr_0008.cnv
# alignctd_adv = dz/dtM 1.000, sbeox0Mg/L 1.000, sbeox0PS 1.000, specc 1.000, c0uS/cm 1.000, flECO-AFL 1.000, ph 1.000, orp 1.000, turbWETntu0 1.000                                                                                 
# file_type = ascii
*END*
     -0.569 -4.313e-20     7.8008     93.791      1.055   1.047477    -0.1044      7.037  1240.2295 2.0298e+03    -0.4545     -0.558     -0.809    24.6547   997.1408 0.0000e+00
     -0.569 -3.921e-21     7.8013     93.793      1.059   1.051447    -0.1209      7.037  1240.2295 1.5920e+03    -0.5071     -0.558     -0.810    24.6523   997.1414 0.0000e+00
     -0.570 -3.564e-22     7.8006     93.781      1.090   1.082440    -0.1220      7.037  1240.2295 8.0652e+02    -0.5687     -0.559     -0.810    24.6492   997.1421 0.0000e+00
     -0.570 -3.234e-23     7.8007     93.776      1.177   1.168767    -0.1093      7.038  1240.2295 4.0199e+02    -0.6093     -0.559     -0.811    24.6466   997.1428 0.0000e+00
     -0.569 -2.225e-24     7.8010     93.775      1.281   1.271533    -0.1067      7.038  1240.2295 7.2484e+02    -0.6048     -0.558     -0.810    24.6442   997.1434 0.0000e+00
     -0.569 7.6633e-24     7.8008     93.770      1.321   1.311210    -0.1157      7.039  1240.2295 1.4030e+03    -0.5471     -0.558     -0.810    24.6415   997.1441 0.0000e+00
     -0.569 8.7218e-23     7.8017     93.775      1.342   1.331704    -0.1143      7.039  1240.2295 1.5602e+03    -0.5020     -0.558     -0.809    24.6388   997.1448 0.0000e+00
     -0.569 9.5966e-22     7.8030     93.787      1.531   1.519321    -0.1076      7.039  1240.2295 1.3905e+03    -0.5183     -0.559     -0.810    24.6360   997.1455 0.0000e+00
     -0.569 1.0556e-20     7.8036     93.790      1.883   1.868894    -0.1120      7.040  1240.2295 1.6350e+03    -0.5469     -0.558     -0.810    24.6333   997.1462 0.0000e+00
     -0.570 1.1612e-19     7.8042     93.793      2.153   2.136808    -0.1159      7.042  1240.2295 1.6973e+03    -0.5529     -0.559     -0.811    24.6309   997.1468 0.0000e+00
     -0.570 1.2773e-18     7.8051     93.799      2.240   2.224129    -0.1106      7.042  1240.2295 1.1371e+03    -0.5256     -0.559     -0.811    24.6283   997.1474 0.0000e+00
     -0.570 1.4050e-17     7.8055     93.800      2.244   2.227689    -0.1088      7.042  1240.2295 5.0032e+02    -0.5111     -0.559     -0.811    24.6261   997.1480 0.0000e+00
     -0.570 1.5455e-16     7.8049     93.792      2.196   2.179845    -0.1118      7.045  1240.2295 2.3044e+02    -0.5091     -0.558     -0.809    24.6237   997.1487 0.0000e+00
     -0.570 1.7001e-15     7.8042     93.784      2.041   2.025842    -0.1126      7.052  1240.2295 2.0177e+02    -0.5013     -0.559     -0.810    24.6210   997.1493 0.0000e+00
     -0.570 1.8701e-14     7.8034     93.777      1.901   1.886366    -0.1177      7.054  1240.2295 2.2892e+02    -0.5480     -0.559     -0.811    24.6186   997.1500 0.0000e+00
     -0.570 2.0571e-13     7.8022     93.765      1.902   1.887437    -0.0953      7.051  1240.2295 5.6029e+02    -0.5166     -0.559     -0.810    24.6162   997.1506 0.0000e+00
     -0.570 2.2628e-12     7.8018     93.761      1.863   1.848710    -0.0416      7.050  1240.2291 1.0908e+03    -0.3840     -0.559     -0.810    24.6146   997.1510 0.0000e+00
     -0.569 2.4891e-11     7.8025     93.772      1.684   1.671574    -0.0064      7.047  1240.2252 1.0654e+03    -0.3214     -0.558     -0.810    24.6152   997.1508 0.0000e+00
     -0.569 2.7380e-10     7.8032     93.781      1.532   1.519835     0.0097      7.043  1240.1826 5.7942e+02    -0.3178     -0.558     -0.810    24.6171   997.1503 0.0000e+00
     -0.570 3.0118e-09     7.8032     93.782      1.483   1.471380     0.0145      7.042  1239.7139 3.3137e+02    -0.3394     -0.559     -0.810    24.6189   997.1499 0.0000e+00
     -0.570 3.3130e-08     7.8033     93.783      1.477   1.465878    -0.0178      7.043  1234.5581 2.9099e+02    -0.3854     -0.559     -0.810    24.6201   997.1494 0.0000e+00
     -0.569 3.6443e-07     7.8033     93.782      1.465   1.453317    -0.0769      7.044  1229.8118 2.5559e+02    -0.4152     -0.558     -0.809    24.6212   997.1492 0.0000e+00
     -0.569      0.000     7.8039     93.788      1.458   1.446226    -0.1101      7.044  1234.2944 2.9219e+02    -0.4708     -0.558     -0.809    24.6219   997.1491 0.0000e+00
     -0.569      0.000     7.8047     93.795      1.518   1.506859    -0.1508      7.044  1236.7899 3.7287e+02    -0.5329     -0.559     -0.810    24.6216   997.1491 0.0000e+00
     -0.569      0.000     7.8040     93.784      1.819   1.806254    -0.6130      7.052  1208.0167 3.8573e+02    -0.3142     -0.558     -0.809    24.6215   997.1492 0.0000e+00
     -0.569      0.005     7.8021     93.774      4.461   4.432575    -1.4587      7.130   948.6922 3.4103e+02     0.1413     -0.558     -0.809    24.6210   997.1492 0.0000e+00
     -0.569      0.024     7.7910     93.777     13.409  13.361622    -1.9050      7.431   490.3720 4.6291e+02     0.4201     -0.558     -0.810    24.6209   997.1494 0.0000e+00
     -0.569      0.061     7.7527     93.773     25.975  26.016630    -1.8483      7.964   245.2567 8.3472e+02     0.8930     -0.558     -0.809    24.6189   997.1498 0.0000e+00
     -0.567      0.112     7.6910     93.748     33.805  34.096027    -0.8601      8.511   221.1846 1.1735e+03     5.9248     -0.560     -0.811    24.6184   997.1500 0.0000e+00
     -0.550      0.169     7.6314     93.727     35.741  36.321023     0.9572      8.931   203.5344 1.3696e+03    15.1493     -0.556     -0.806    24.6146   997.1509 0.0000e+00
     -0.494      0.225     7.5872     93.749     35.795  36.609629     1.9616      9.220   180.6982 1.5432e+03    20.1380     -0.499     -0.724    24.6198   997.1520 0.0000e+00
     -0.404      0.271     7.5632     93.877     35.645  36.633814     2.0498      9.399   180.6493 1.7136e+03    20.1650     -0.395     -0.573    24.8908   997.0887 0.0000e+00
     -0.309      0.301     7.5659     94.184     35.514  36.613710     1.9284      9.495   200.1039 1.8125e+03    15.6728     -0.299     -0.435    25.4128   996.9568 0.0000e+00
     -0.220      0.307     7.5936     94.683     35.397  36.557144     1.6991      9.534   199.7057 1.8215e+03     7.3778     -0.215     -0.312    25.8302   996.8477 0.0000e+00
     -0.136      0.288     7.6375     95.315     35.267  36.457738     1.5838      9.539   178.6736 1.6630e+03     2.8507     -0.129     -0.186    26.1557   996.7616 0.0000e+00
     -0.065      0.255     7.6883     95.999     35.156  36.363921     1.5925      9.529   165.8095 1.3603e+03     2.4588     -0.058     -0.084    26.4177   996.6916 0.0000e+00
     -0.006      0.218     7.7411     96.683     35.096  36.311435     1.6475      9.514   163.4167 1.2269e+03     2.3439     -0.004     -0.006    26.5659   996.6518 0.0000e+00
      0.042      0.179     7.7921     97.328     35.112  36.330924     1.7467      9.501   162.4766 1.2325e+03     2.1498      0.047      0.067    26.6463   996.6302 0.0000e+00
      0.082      0.142     7.8340     97.849     35.189  36.409157     1.8113      9.489   161.7556 1.2283e+03     2.0457      0.081      0.118    26.6867   996.6192 0.0000e+00
      0.116      0.112     7.8610     98.176     35.276  36.495691     1.8224      9.475   161.3243 1.1988e+03     2.0353      0.117      0.170    26.7164   996.6113 0.0000e+00
      0.139      0.089     7.8759     98.354     35.333  36.552057     1.8291      9.458   161.2199 1.1977e+03     2.0235      0.145      0.210    26.7285   996.6080 0.0000e+00
      0.148      0.071     7.8854     98.469     35.365  36.582898     1.8664      9.437   161.7838 1.3101e+03     2.0016      0.140      0.205    26.7304   996.6075 0.0000e+00
      0.158      0.056     7.8924     98.559     35.395  36.614694     1.9346      9.414   170.8961 1.2788e+03     1.9994      0.151      0.219    26.7305   996.6076 0.0000e+00
      0.174      0.041     7.8921     98.566     35.457  36.682619     1.9772      9.390   181.1405 1.1951e+03     2.0299      0.173      0.251    26.7214   996.6103 0.0000e+00
      0.190      0.027     7.8716     98.321     35.597  36.832926     1.9912      9.365   175.4324 1.4961e+03     2.0762      0.186      0.270    26.7171   996.6115 0.0000e+00
      0.201      0.016     7.8223     97.713     35.791  37.035671     1.9734      9.340   166.4088 1.6984e+03     2.5592      0.200      0.291    26.7158   996.6119 0.0000e+00
      0.201      0.008     7.7558     96.885     35.916  37.166329     1.9191      9.316   164.9591 1.4139e+03     3.4781      0.203      0.295    26.7150   996.6121 0.0000e+00
      0.191      0.002     7.7019     96.216     35.891  37.143249     1.8892      9.294   173.6487 1.2751e+03     3.9771      0.187      0.272    26.7221   996.6101 0.0000e+00
      0.181     -0.001     7.6815     95.971     35.881  37.137450     1.8979      9.274   189.9950 1.2906e+03     3.9724      0.171      0.249    26.7309   996.6077 0.0000e+00
      0.181     -0.001     7.6844     96.020     36.081  37.350118     1.9459      9.253   190.5221 1.2012e+03     3.4868      0.175      0.254    26.7353   996.6066 0.0000e+00
      0.190      0.003     7.6876     96.074     36.336  37.619958     2.0189      9.235   175.1184 1.0923e+03     2.5625      0.188      0.273    26.7343   996.6070 0.0000e+00
      0.196      0.008     7.6777     95.962     36.442  37.734150     2.0527      9.224   165.6762 9.8124e+02     2.0394      0.195      0.283    26.7370   996.6063 0.0000e+00
      0.196      0.009     7.6496     95.618     36.482  37.778685     2.0509      9.217   163.8590 9.8018e+02     2.0116      0.193      0.280    26.7436   996.6045 0.0000e+00
      0.195      0.007     7.6004     95.010     36.539  37.841055     2.0142      9.210   162.9550 1.0580e+03     1.9642      0.190      0.275    26.7509   996.6025 0.0000e+00
      0.196      0.004     7.5269     94.097     36.549  37.853509     1.9386      9.200   162.3171 1.0681e+03     1.8272      0.192      0.280    26.7608   996.5999 0.0000e+00
      0.198      0.003     7.4338     92.938     36.498  37.802314     1.8917      9.186   161.9112 1.0721e+03     1.7641      0.194      0.282    26.7669   996.5983 0.0000e+00
      0.199      0.003     7.3385     91.752     36.426  37.729882     1.8802      9.170   161.5756 1.0723e+03     1.7910      0.195      0.283    26.7696   996.5976 0.0000e+00
      0.200      0.004     7.2601     90.776     36.371  37.675969     1.8436      9.154   161.2697 1.1162e+03     1.8577      0.197      0.285    26.7747   996.5962 0.0000e+00
      0.200      0.004     7.2111     90.168     36.352  37.658257     1.7867      9.139   160.9666 1.4473e+03     1.9482      0.197      0.285    26.7784   996.5952 0.0000e+00
      0.200      0.003     7.1970     89.992     36.337  37.642684     1.7641      9.127   160.7504 1.6011e+03     2.0000      0.195      0.283    26.7802   996.5947 0.0000e+00
      0.201      0.003     7.2160     90.229     36.311  37.614629     1.7692      9.117   160.6345 1.2704e+03     2.0243      0.196      0.285    26.7837   996.5937 0.0000e+00
      0.204      0.002     7.2598     90.774     36.272  37.572939     1.7714      9.105   160.5118 9.7799e+02     2.0126      0.200      0.291    26.7877   996.5926 0.0000e+00
      0.205      0.002     7.3166     91.479     36.223  37.519469     1.7994      9.091   160.3850 9.5649e+02     1.9899      0.202      0.294    26.7900   996.5920 0.0000e+00
