* Sea-Bird SBE19plus  Data File:
* FileName = C:\DATA\070319_fcr50_0001.hex
* Software version 2.8.0.119 SB_Terminal.dll
* Temperature SN = 7809
* Conductivity SN = 7809
* System UpLoad Time = Jul 03 2019 09:49:42
* <ApplicationData>
* <Seaterm232>
* <SoftwareVersion>2.8.0.119</SoftwareVersion>
* <BuildDate>07-Nov-2018</BuildDate>
* </Seaterm232>
* </ApplicationData>
* cast   1 03 Jul 2019 09:33:58 samples 1 to 1242, avg = 1, stop = mag switch
# nquan = 16
# nvalues = 1037                        
# units = specified
# name 0 = depFM: Depth [fresh water, m]
# name 1 = dz/dtM: Descent Rate [m/s]
# name 2 = sbeox0Mg/L: Oxygen, SBE 43 [mg/l]
# name 3 = sbeox0PS: Oxygen, SBE 43 [% saturation]
# name 4 = specc: Specific Conductance [uS/cm]
# name 5 = c0uS/cm: Conductivity [uS/cm]
# name 6 = flECO-AFL: Fluorescence, WET Labs ECO-AFL/FL [mg/m^3]
# name 7 = ph: pH
# name 8 = orp: Oxidation Reduction Potential [mV]
# name 9 = par/sat/log: PAR/Logarithmic, Satlantic
# name 10 = turbWETntu0: Turbidity, WET Labs ECO [NTU]
# name 11 = prdM: Pressure, Strain Gauge [db]
# name 12 = prdE: Pressure, Strain Gauge [psi]
# name 13 = tv290C: Temperature [ITS-90, deg C]
# name 14 = density00: Density [density, kg/m^3]
# name 15 = flag:  0.000e+00
# span 0 =     -0.599,      9.692       
# span 1 =     -0.261,      0.247       
# span 2 =     0.0912,    13.6817       
# span 3 =      0.810,    151.343       
# span 4 =     11.793,    126.696       
# span 5 =  11.981478,  88.828267       
# span 6 =    -1.9001,     6.5669       
# span 7 =      6.830,      9.452       
# span 8 = -1240.7455,   304.7711       
# span 9 = 1.2345e-01, 1.5205e+03       
# span 10 =    -4.4595,   406.4054      
# span 11 =     -0.588,      9.505      
# span 12 =     -0.853,     13.786      
# span 13 =     9.9672,    26.2710      
# span 14 =   996.7287,   999.7937      
# span 15 = 0.0000e+00, 0.0000e+00      
# interval = seconds: 0.25
# start_time = Jul 03 2019 09:33:58 [Instrument's time stamp, header]
# bad_flag = -9.990e-29
# <Sensors count="9" >
#   <sensor Channel="1" >
#     <!-- Count, Temperature -->
#     <TemperatureSensor SensorID="58" >
#       <SerialNumber>7809</SerialNumber>
#       <CalibrationDate>24-Mar-19</CalibrationDate>
#       <A0>1.21792325e-003</A0>
#       <A1>2.81669265e-004</A1>
#       <A2>-1.60333336e-006</A2>
#       <A3>1.98414625e-007</A3>
#       <Slope>1.00000000</Slope>
#       <Offset>0.0000</Offset>
#     </TemperatureSensor>
#   </sensor>
#   <sensor Channel="2" >
#     <!-- Frequency 0, Conductivity -->
#     <ConductivitySensor SensorID="3" >
#       <SerialNumber>7809</SerialNumber>
#       <CalibrationDate>24-Mar-19</CalibrationDate>
#       <UseG_J>1</UseG_J>
#       <!-- Cell const and series R are applicable only for wide range sensors. -->
#       <SeriesR>0.0000</SeriesR>
#       <CellConst>2000.0000</CellConst>
#       <ConductivityType>0</ConductivityType>
#       <Coefficients equation="0" >
#         <A>0.00000000e+000</A>
#         <B>0.00000000e+000</B>
#         <C>0.00000000e+000</C>
#         <D>0.00000000e+000</D>
#         <M>0.0</M>
#         <CPcor>-9.57000000e-008</CPcor>
#       </Coefficients>
#       <Coefficients equation="1" >
#         <G>-1.00589325e+000</G>
#         <H>1.26816302e-001</H>
#         <I>-1.51560448e-004</I>
#         <J>2.67137274e-005</J>
#         <CPcor>-9.57000000e-008</CPcor>
#         <CTcor>3.2500e-006</CTcor>
#         <!-- WBOTC not applicable unless ConductivityType = 1. -->
#         <WBOTC>0.00000000e+000</WBOTC>
#       </Coefficients>
#       <Slope>1.00000000</Slope>
#       <Offset>0.00000</Offset>
#     </ConductivitySensor>
#   </sensor>
#   <sensor Channel="3" >
#     <!-- Count, Pressure, Strain Gauge -->
#     <PressureSensor SensorID="46" >
#       <SerialNumber>7809</SerialNumber>
#       <CalibrationDate>11-Mar-19</CalibrationDate>
#       <PA0>4.56561833e-002</PA0>
#       <PA1>4.85095118e-004</PA1>
#       <PA2>-2.88327090e-012</PA2>
#       <PTEMPA0>-5.48784562e+001</PTEMPA0>
#       <PTEMPA1>5.53756816e+001</PTEMPA1>
#       <PTEMPA2>-5.86727098e-001</PTEMPA2>
#       <PTCA0>5.25246745e+005</PTCA0>
#       <PTCA1>1.22304214e+001</PTCA1>
#       <PTCA2>-3.56745036e-001</PTCA2>
#       <PTCB0>2.51668750e+001</PTCB0>
#       <PTCB1>3.75000000e-004</PTCB1>
#       <PTCB2>0.00000000e+000</PTCB2>
#       <Offset>0.000000</Offset>
#     </PressureSensor>
#   </sensor>
#   <sensor Channel="4" >
#     <!-- A/D voltage 0, Oxygen, SBE 43 -->
#     <OxygenSensor SensorID="38" >
#       <SerialNumber>0434</SerialNumber>
#       <CalibrationDate>13-Apr-19</CalibrationDate>
#       <Use2007Equation>1</Use2007Equation>
#       <CalibrationCoefficients equation="0" >
#         <!-- Coefficients for Owens-Millard equation. -->
#         <Boc>0.0000</Boc>
#         <Soc>0.0000e+000</Soc>
#         <offset>0.0000</offset>
#         <Pcor>0.00e+000</Pcor>
#         <Tcor>0.0000</Tcor>
#         <Tau>0.0</Tau>
#       </CalibrationCoefficients>
#       <CalibrationCoefficients equation="1" >
#         <!-- Coefficients for Sea-Bird equation - SBE calibration in 2007 and later. -->
#         <Soc>4.2007e-001</Soc>
#         <offset>-0.6109</offset>
#         <A>-4.3656e-003</A>
#         <B> 1.7017e-004</B>
#         <C>-2.5341e-006</C>
#         <D0> 2.5826e+000</D0>
#         <D1> 1.92634e-004</D1>
#         <D2>-4.64803e-002</D2>
#         <E> 3.6000e-002</E>
#         <Tau20> 1.1800</Tau20>
#         <H1>-3.3000e-002</H1>
#         <H2> 5.0000e+003</H2>
#         <H3> 1.4500e+003</H3>
#       </CalibrationCoefficients>
#     </OxygenSensor>
#   </sensor>
#   <sensor Channel="5" >
#     <!-- A/D voltage 1, PAR/Logarithmic, Satlantic -->
#     <PARLog_SatlanticSensor SensorID="76" >
#       <SerialNumber>1122</SerialNumber>
#       <CalibrationDate>08-May-2019</CalibrationDate>
#       <a0>9.7456e-001</a0>
#       <a1>8.1640e-001</a1>
#       <Im>1.3589e+000</Im>
#       <Multiplier>1.0000e+000</Multiplier>
#     </PARLog_SatlanticSensor>
#   </sensor>
#   <sensor Channel="6" >
#     <!-- A/D voltage 2, pH -->
#     <pH_Sensor SensorID="43" >
#       <SerialNumber>0363</SerialNumber>
#       <CalibrationDate>15-Apr-19</CalibrationDate>
#       <Slope>4.5952</Slope>
#       <Offset>2.5370</Offset>
#     </pH_Sensor>
#   </sensor>
#   <sensor Channel="7" >
#     <!-- A/D voltage 3, Oxidation Reduction Potential -->
#     <OxidationReductionPotentialSensor SensorID="41" >
#       <SerialNumber>0363</SerialNumber>
#       <CalibrationDate>15-Apr-19</CalibrationDate>
#       <B>2.499480</B>
#       <M>-0.496195</M>
#       <Offset>0.0</Offset>
#     </OxidationReductionPotentialSensor>
#   </sensor>
#   <sensor Channel="8" >
#     <!-- A/D voltage 4, Fluorometer, WET Labs ECO-AFL/FL -->
#     <FluoroWetlabECO_AFL_FL_Sensor SensorID="20" >
#       <SerialNumber>FLNTURT-2496</SerialNumber>
#       <CalibrationDate>08-May-2019</CalibrationDate>
#       <ScaleFactor>5.00000000e+001</ScaleFactor>
#       <!-- Dark output -->
#       <Vblank>0.0550</Vblank>
#     </FluoroWetlabECO_AFL_FL_Sensor>
#   </sensor>
#   <sensor Channel="9" >
#     <!-- A/D voltage 5, Turbidity Meter, WET Labs, ECO-NTU -->
#     <TurbidityMeter SensorID="67" >
#       <SerialNumber>FLNTURT-2496</SerialNumber>
#       <CalibrationDate>08-May-2019</CalibrationDate>
#       <ScaleFactor>189.000000</ScaleFactor>
#       <!-- Dark output -->
#       <DarkVoltage>0.071000</DarkVoltage>
#     </TurbidityMeter>
#   </sensor>
# </Sensors>
# datcnv_date = Jul 03 2019 09:50:21, 7.26.7.129 [datcnv_vars = 15]
# datcnv_in = C:\DATA\070319_fcr50_0001.hex C:\DATA\SBE19plusV2_7809.xmlcon
# datcnv_skipover = 0
# datcnv_ox_hysteresis_correction = yes
# datcnv_ox_tau_correction = yes
# filter_date = Jul 03 2019 09:50:49, 7.26.7.129
# filter_in = C:\DATA\070319_fcr50_0001.cnv
# filter_low_pass_tc_A = 0.030
# filter_low_pass_tc_B = 0.150
# filter_low_pass_A_vars = prdM prdE tv290C density00
# filter_low_pass_B_vars = depFM dz/dtM sbeox0Mg/L sbeox0PS specc c0uS/cm flECO-AFL ph orp par/sat/log turbWETntu0
# alignctd_date = Jul 03 2019 09:51:09, 7.26.7.129
# alignctd_in = C:\DATA\070319_fcr50_0001.cnv
# alignctd_adv = dz/dtM 1.000, sbeox0Mg/L 1.000, sbeox0PS 1.000, specc 1.000, c0uS/cm 1.000, flECO-AFL 1.000, ph 1.000, orp 1.000, turbWETntu0 1.000                                                                                 
# file_type = ascii
*END*
     -0.599 7.2940e-19     7.9784     97.494     12.186  12.315350    -0.1658      6.950 -1240.7455 2.3053e+02    -0.5207     -0.587     -0.851    25.4394   996.9417 0.0000e+00
     -0.598 6.6116e-18     7.9756     97.499     12.153  12.286772    -0.1727      6.954 -1240.7455 2.2441e+02    -0.5008     -0.587     -0.851    25.4491   996.9392 0.0000e+00
     -0.598 7.2600e-17     7.9746     97.503     12.124  12.259863    -0.1753      6.955 -1240.7455 2.4733e+02    -0.4323     -0.587     -0.851    25.4700   996.9337 0.0000e+00
     -0.599 7.9858e-16     7.9748     97.501     12.109  12.243587    -0.1457      6.957 -1240.7455 5.6086e+02    -0.2825     -0.588     -0.852    25.4961   996.9267 0.0000e+00
     -0.599 8.7844e-15     7.9757     97.497     12.084  12.216760    -0.0919      6.958 -1240.7455 1.1418e+03    -0.0002     -0.588     -0.853    25.5245   996.9194 0.0000e+00
     -0.599 9.6629e-14     7.9773     97.497     12.059  12.189076    -0.0633      6.959 -1240.7455 1.4472e+03     0.1945     -0.587     -0.852    25.5508   996.9126 0.0000e+00
     -0.599 1.0629e-12     7.9797     97.507     12.035  12.162447    -0.0597      6.960 -1240.7455 1.1584e+03     0.2041     -0.587     -0.852    25.5602   996.9100 0.0000e+00
     -0.599 1.1692e-11     7.9807     97.506     12.023  12.148362    -0.0572      6.961 -1240.7455 5.5748e+02     0.0173     -0.587     -0.852    25.5535   996.9118 0.0000e+00
     -0.599 1.2861e-10     7.9791     97.492     12.020  12.145562    -0.0581      6.960 -1240.7455 2.2316e+02    -0.3271     -0.587     -0.852    25.5449   996.9140 0.0000e+00
     -0.599 1.4147e-09     7.9752     97.493     11.996  12.128583    -0.0622      6.959 -1240.7455 1.7427e+02    -0.5196     -0.587     -0.852    25.5331   996.9171 0.0000e+00
     -0.599 1.5562e-08     7.9690     97.507     11.926  12.069873    -0.0637      6.958 -1240.7453 1.4374e+02    -0.5069     -0.587     -0.852    25.5212   996.9203 0.0000e+00
     -0.599 1.7118e-07     7.9600     97.511     11.848  12.006287    -0.1201      6.956 -1240.7431 1.2752e+02    -0.3709     -0.587     -0.852    25.5117   996.9227 0.0000e+00
     -0.599      0.000     7.9497     97.509     11.820  11.993731    -0.2404      6.955 -1240.7186 1.5631e+02    -0.1531     -0.587     -0.852    25.5081   996.9236 0.0000e+00
     -0.599      0.000     7.9401     97.507     11.793  11.981478    -0.3127      6.956 -1240.4497 4.8891e+02    -0.0365     -0.587     -0.851    25.5353   996.9165 0.0000e+00
     -0.599      0.000     7.9326     97.498     12.035  12.238524    -0.3534      6.972 -1237.4921 1.0735e+03    -0.1407     -0.587     -0.852    25.5913   996.9019 0.0000e+00
     -0.599      0.003     7.9295     97.495     15.468  15.735612    -0.7580      7.179 -1204.9584 1.3627e+03    -1.2819     -0.588     -0.852    25.6572   996.8845 0.0000e+00
     -0.599      0.013     7.9301     97.501     27.662  28.138736    -1.5026      7.604  -847.0869 1.3872e+03    -3.3148     -0.587     -0.852    25.7306   996.8653 0.0000e+00
     -0.599      0.033     7.9296     97.506     46.242  47.049439    -1.9001      7.921  -186.8743 1.4230e+03    -4.4016     -0.587     -0.852    25.8009   996.8467 0.0000e+00
     -0.598      0.061     7.9257     97.509     60.485  61.572315    -1.8624      8.102   182.9657 1.4423e+03    -4.4595     -0.586     -0.850    25.8515   996.8334 0.0000e+00
     -0.589      0.095     7.9205     97.505     63.962  65.149794    -1.1252      8.379   228.5611 1.4258e+03    -4.3758     -0.588     -0.852    25.8717   996.8280 0.0000e+00
     -0.558      0.137     7.9158     97.493     57.623  58.721523     0.2248      8.734   237.3358 1.1790e+03    -4.2743     -0.558     -0.809    25.8557   996.8359 0.0000e+00
     -0.508      0.182     7.9150     97.513     49.418  50.379270     0.9621      9.022   236.4896 9.6013e+02    -4.2478     -0.494     -0.716    25.8501   996.8453 0.0000e+00
     -0.458      0.218     7.9246     97.653     45.163  46.054428     1.0268      9.204   234.9360 1.2107e+03    -4.2525     -0.451     -0.654    25.8882   996.8404 0.0000e+00
     -0.398      0.239     7.9471     97.948     42.861  43.714630     1.0413      9.322   237.4797 1.4740e+03    -4.0685     -0.402     -0.584    25.9266   996.8318 0.0000e+00
     -0.316      0.247     7.9804     98.371     42.196  43.042828     1.2063      9.401   240.6591 1.5038e+03    -2.3182     -0.311     -0.451    25.9522   996.8220 0.0000e+00
     -0.235      0.247     8.0245     98.923     44.276  45.169980     1.5141      9.444   240.0804 1.5087e+03     0.8196     -0.217     -0.314    25.9696   996.8141 0.0000e+00
     -0.179      0.237     8.0770     99.582     46.581  47.527154     1.6768      9.452   238.1394 1.5162e+03     2.5070     -0.173     -0.249    25.9810   996.8109 0.0000e+00
     -0.132      0.217     8.1310    100.266     47.084  48.048348     1.6900      9.440   237.5823 1.5205e+03     2.6475     -0.139     -0.202    25.9915   996.8074 0.0000e+00
     -0.075      0.189     8.1810    100.902     46.757  47.725152     1.7257      9.420   237.4750 1.3210e+03     2.6498     -0.074     -0.106    25.9977   996.8054 0.0000e+00
     -0.019      0.159     8.2230    101.436     46.336  47.302899     1.7881      9.404   237.8742 9.3291e+02     2.6338     -0.010     -0.013    26.0028   996.8055 0.0000e+00
      0.020      0.130     8.2532    101.814     44.862  45.800706     1.8276      9.394   238.8810 8.0948e+02     2.6508      0.026      0.037    26.0075   996.8055 0.0000e+00
      0.045      0.099     8.2686    102.000     42.267  43.151151     1.8406      9.384   238.7208 9.0908e+02     2.6580      0.044      0.063    26.0160   996.8032 0.0000e+00
      0.066      0.066     8.2684    101.990     40.084  40.919846     1.9101      9.370   237.4860 8.2149e+02     2.5901      0.069      0.099    26.0305   996.7993 0.0000e+00
      0.077      0.038     8.2462    101.710     38.840  39.647355     2.0440      9.354   237.1161 7.2471e+02     2.5185      0.082      0.118    26.0407   996.7966 0.0000e+00
      0.076      0.018     8.2058    101.209     38.148  38.938785     2.1240      9.334   237.9482 7.8114e+02     2.5128      0.074      0.107    26.0417   996.7959 0.0000e+00
      0.073      0.005     8.1666    100.726     37.728  38.510250     2.1400      9.312   238.9427 7.3314e+02     2.5203      0.072      0.105    26.0394   996.7955 0.0000e+00
      0.071     -0.004     8.1239    100.204     37.433  38.211210     2.1683      9.290   239.3318 6.1350e+02     2.5123      0.070      0.102    26.0359   996.7957 0.0000e+00
      0.070     -0.007     8.0608     99.432     37.337  38.116125     2.2145      9.267   238.9540 7.2968e+02     2.5135      0.067      0.096    26.0316   996.7965 0.0000e+00
      0.069     -0.006     7.9756     98.385     37.342  38.122326     2.2400      9.243   238.2465 8.6789e+02     2.5347      0.070      0.101    26.0296   996.7968 0.0000e+00
      0.066     -0.005     7.8730     97.121     37.377  38.159232     2.2507      9.221   238.1765 7.6077e+02     2.5394      0.065      0.093    26.0303   996.7965 0.0000e+00
      0.064     -0.003     7.7744     95.906     37.522  38.308443     2.2655      9.201   238.7095 6.8693e+02     2.5376      0.060      0.088    26.0328   996.7957 0.0000e+00
      0.064     -0.001     7.7045     95.044     37.677  38.466444     2.2804      9.183   238.8407 6.1344e+02     2.5788      0.062      0.090    26.0366   996.7947 0.0000e+00
      0.065      0.000     7.6560     94.448     37.754  38.546154     2.2927      9.169   238.4717 4.8982e+02     2.6116      0.062      0.091    26.0393   996.7940 0.0000e+00
      0.066      0.002     7.6095     93.874     37.657  38.447004     2.3017      9.161   238.2061 4.9112e+02     2.6395      0.064      0.093    26.0407   996.7936 0.0000e+00
      0.067      0.002     7.5611     93.279     37.310  38.092825     2.3111      9.155   238.1250 4.7628e+02     2.6539      0.065      0.094    26.0412   996.7935 0.0000e+00
      0.067      0.002     7.5101     92.649     36.979  37.755044     2.3456      9.146   238.0074 3.7936e+02     2.5888      0.066      0.096    26.0413   996.7936 0.0000e+00
      0.067      0.002     7.4549     91.968     36.828  37.600228     2.4059      9.138   237.9880 6.0787e+02     2.5079      0.067      0.097    26.0418   996.7935 0.0000e+00
      0.068      0.001     7.3944     91.222     36.783  37.553935     2.4338      9.130   238.0635 9.9595e+02     2.4947      0.066      0.096    26.0427   996.7932 0.0000e+00
      0.068      0.001     7.3183     90.283     36.804  37.576166     2.4323      9.124   237.9731 8.4214e+02     2.5280      0.067      0.097    26.0428   996.7930 0.0000e+00
      0.068      0.002     7.2213     89.087     36.841  37.615124     2.4473      9.121   237.9269 4.8686e+02     2.5499      0.067      0.097    26.0428   996.7929 0.0000e+00
      0.068      0.002     7.1164     87.796     36.869  37.644126     2.4688      9.117   238.0212 4.0991e+02     2.5296      0.067      0.097    26.0426   996.7930 0.0000e+00
      0.069      0.001     7.0382     86.833     36.896  37.672931     2.4756      9.112   238.0807 3.9331e+02     2.4800      0.068      0.098    26.0422   996.7931 0.0000e+00
      0.070     -0.003     7.0229     86.646     36.931  37.709505     2.4854      9.110   237.8730 3.5651e+02     2.4742      0.069      0.100    26.0427   996.7929 0.0000e+00
      0.070     -0.010     7.0788     87.335     36.928  37.705487     2.5006      9.110   237.1445 3.6366e+02     2.4921      0.070      0.101    26.0439   996.7926 0.0000e+00
      0.069     -0.016     7.1846     88.640     36.848  37.624344     2.4945      9.102   236.4994 3.8236e+02     2.4675      0.068      0.099    26.0458   996.7921 0.0000e+00
      0.065     -0.018     7.3113     90.205     36.840  37.617061     2.4809      9.077   236.0098 4.3892e+02     2.4710      0.067      0.097    26.0472   996.7918 0.0000e+00
      0.055     -0.017     7.4366     91.750     36.965  37.744385     2.4751      9.048   235.6129 5.7174e+02     2.5022      0.057      0.083    26.0474   996.7917 0.0000e+00
      0.042     -0.014     7.5373     92.991     36.988  37.767340     2.3893      9.035   236.0029 6.9073e+02     2.5162      0.037      0.054    26.0474   996.7916 0.0000e+00
      0.038     -0.006     7.5922     93.668     36.864  37.640710     2.2244      9.033   236.5949 6.6294e+02     2.5421      0.032      0.046    26.0473   996.7915 0.0000e+00
      0.043      0.004     7.5949     93.703     36.834  37.609773     2.1371      9.033   236.5751 4.9785e+02     2.5531      0.045      0.065    26.0474   996.7916 0.0000e+00
      0.047      0.013     7.5509     93.161     36.870  37.647192     2.1233      9.033   236.1082 3.4058e+02     2.5514      0.047      0.068    26.0480   996.7915 0.0000e+00
      0.051      0.020     7.4668     92.123     36.809  37.585338     2.0313      9.032   235.6827 3.4750e+02     2.5549      0.046      0.066    26.0476   996.7916 0.0000e+00
      0.060      0.021     7.3557     90.751     36.723  37.496648     1.8643      9.029   235.7320 4.2208e+02     2.5299      0.061      0.088    26.0468   996.7918 0.0000e+00
