* Sea-Bird SBE19plus  Data File:
* FileName = C:\R\Reservoirs\Data\DataNotYetUploadedToEDI\Raw_CTD\RawDownloads\070522_bvr40_SBE19plus01907809_0004.hex
* Software version 2.8.0.119
* Temperature SN = 7809
* Conductivity SN = 7809
* System UpLoad Time = Jul 05 2022 16:51:54
* <ApplicationData>
* <Seaterm232>
* <SoftwareVersion>2.8.0.119</SoftwareVersion>
* <BuildDate>07-Nov-2018</BuildDate>
* </Seaterm232>
* </ApplicationData>
* <InstrumentState>
* <HardwareData DeviceType='SBE19plus' SerialNumber='01907809'>
*
*    <Manufacturer>Sea-Bird Electronics, Inc.</Manufacturer>
*
*    <FirmwareVersion>3.1.8</FirmwareVersion>
*
*    <FirmwareDate>Mar  9 2016 16:22:29</FirmwareDate>
*
*    <CommandSetVersion>1.4</CommandSetVersion>
*
*    <PCBAssembly PCBSerialNum='120721' AssemblyNum='41054J'/>
*
*    <PCBAssembly PCBSerialNum='120715' AssemblyNum='41967A'/>
*
*    <PCBAssembly PCBSerialNum='116699' AssemblyNum='41606'/>
*
*    <PCBAssembly PCBSerialNum='120719' AssemblyNum='41059D'/>
*
*    <MfgDate>28-Apr-2017</MfgDate>
*
*    <InternalSensors>
*
*       <Sensor id='Main Temperature'>
*
*          <type>temperature0</type>
*
*          <SerialNumber>01907809</SerialNumber>
*
*       </Sensor>
*
*       <Sensor id='Main Conductivity'>
*
*          <type>conductivity-0</type>
*
*          <SerialNumber>01907809</SerialNumber>
*
*       </Sensor>
*
*       <Sensor id='Main Pressure'>
*
*          <type>strain-0</type>
*
*          <SerialNumber>10586018</SerialNumber>
*
*       </Sensor>
*
*    </InternalSensors>
*
*    <ExternalSensors>
*
*       <Sensor id='volt 0'>
*
*          <type>pH</type>
*
*          <SerialNumber>27-0363</SerialNumber>
*
*       </Sensor>
*
*       <Sensor id='volt 1'>
*
*          <type>ORP</type>
*
*          <SerialNumber>27-0363</SerialNumber>
*
*       </Sensor>
*
*       <Sensor id='volt 2'>
*
*          <type>OXY</type>
*
*          <SerialNumber>43-0434</SerialNumber>
*
*       </Sensor>
*
*       <Sensor id='volt 3'>
*
*          <type>PAR</type>
*
*          <SerialNumber>1122</SerialNumber>
*
*       </Sensor>
*
*       <Sensor id='volt 4'>
*
*          <type>ECO AFL/FL</type>
*
*          <SerialNumber>FLNTURT-2496</SerialNumber>
*
*       </Sensor>
*
*       <Sensor id='volt 5'>
*
*          <type>ECO-NTU</type>
*
*          <SerialNumber>FLNTURT-2496</SerialNumber>
*
*       </Sensor>
*
*       <Sensor id='serial'>
*
*          <type>not assigned</type>
*
*          <SerialNumber>not assigned</SerialNumber>
*
*       </Sensor>
*
*    </ExternalSensors>
*
* </HardwareData>
* <StatusData DeviceType='SBE19plus' SerialNumber='01907809'>
*
*    <DateTime>2022-07-05T13:45:48</DateTime>
*
*    <LoggingState>not logging</LoggingState>
*
*    <EventSummary numEvents='0'/>
*
*    <Power>
*
*       <vMain>12.4</vMain>
*
*       <vLith>8.5</vLith>
*
*       <iMain>63.1</iMain>
*
*       <iPump>164.0</iPump>
*
*       <iExt01>19.7</iExt01>
*
*       <iExt2345>37.3</iExt2345>
*
*    </Power>
*
*    <MemorySummary>
*
*       <Bytes>388930</Bytes>
*
*       <Samples>16910</Samples>
*
*       <SamplesFree>2843878</SamplesFree>
*
*       <SampleLength>23</SampleLength>
*
*       <Profiles>6</Profiles>
*
*    </MemorySummary>
*
* </StatusData>
* <ConfigurationData DeviceType='SBE19plus' SerialNumber='01907809'>
*
*    <ProfileMode>
*
*       <ScansToAverage>1</ScansToAverage>
*
*       <MinimumCondFreq>5</MinimumCondFreq>
*
*       <PumpDelay>40</PumpDelay>
*
*       <AutoRun>no</AutoRun>
*
*       <IgnoreSwitch>no</IgnoreSwitch>
*
*    </ProfileMode>
*
*    <Battery>
*
*       <Type>alkaline</Type>
*
*       <CutOff>7.5</CutOff>
*
*    </Battery>
*
*    <DataChannels>
*
*       <ExtVolt0>yes</ExtVolt0>
*
*       <ExtVolt1>yes</ExtVolt1>
*
*       <ExtVolt2>yes</ExtVolt2>
*
*       <ExtVolt3>yes</ExtVolt3>
*
*       <ExtVolt4>yes</ExtVolt4>
*
*       <ExtVolt5>yes</ExtVolt5>
*
*       <SBE38>no</SBE38>
*
*       <WETLABS>no</WETLABS>
*
*       <OPTODE>no</OPTODE>
*
*       <SBE63>no</SBE63>
*
*       <SeaFET>no</SeaFET>
*
*       <GTD>no</GTD>
*
*    </DataChannels>
*
*    <EchoCharacters>yes</EchoCharacters>
*
*    <OutputExecutedTag>yes</OutputExecutedTag>
*
*    <OutputFormat>raw HEX</OutputFormat>
*
* </ConfigurationData>
* <CalibrationCoefficients DeviceType='SBE19plus' SerialNumber='01907809'>
*
*    <Calibration format='TEMP1' id='Main Temperature'>
*
*       <SerialNum>01907809</SerialNum>
*
*       <CalDate>25-Sep-21</CalDate>
*
*       <TA0>1.232513e-03</TA0>
*
*       <TA1>2.763223e-04</TA1>
*
*       <TA2>-9.501887e-07</TA2>
*
*       <TA3>1.718014e-07</TA3>
*
*       <TOFFSET>0.000000e+00</TOFFSET>
*
*    </Calibration>
*
*    <Calibration format='WBCOND0' id='Main Conductivity'>
*
*       <SerialNum>01907809</SerialNum>
*
*       <CalDate>25-Sep-21</CalDate>
*
*       <G>-1.004440e+00</G>
*
*       <H>1.264604e-01</H>
*
*       <I>-7.854363e-05</I>
*
*       <J>2.210938e-05</J>
*
*       <CPCOR>-9.570000e-08</CPCOR>
*
*       <CTCOR>3.250000e-06</CTCOR>
*
*       <CSLOPE>1.000000e+00</CSLOPE>
*
*    </Calibration>
*
*    <Calibration format='STRAIN0' id='Main Pressure'>
*
*       <SerialNum>10586018</SerialNum>
*
*       <CalDate>10-Sep-21</CalDate>
*
*       <PA0>4.789196e-02</PA0>
*
*       <PA1>4.853655e-04</PA1>
*
*       <PA2>-3.689276e-12</PA2>
*
*       <PTCA0>5.254946e+05</PTCA0>
*
*       <PTCA1>1.325193e+01</PTCA1>
*
*       <PTCA2>-3.889275e-01</PTCA2>
*
*       <PTCB0>2.516687e+01</PTCB0>
*
*       <PTCB1>3.750000e-04</PTCB1>
*
*       <PTCB2>0.000000e+00</PTCB2>
*
*       <PTEMPA0>-5.401644e+01</PTEMPA0>
*
*       <PTEMPA1>5.390655e+01</PTEMPA1>
*
*       <PTEMPA2>-2.194112e-02</PTEMPA2>
*
*       <POFFSET>-1.280000e-01</POFFSET>
*
*       <PRANGE>1.600000e+02</PRANGE>
*
*    </Calibration>
*
*    <Calibration format='VOLT0' id='Volt 0'>
*
*       <OFFSET>-4.920000e-02</OFFSET>
*
*       <SLOPE>1.248122e+00</SLOPE>
*
*    </Calibration>
*
*    <Calibration format='VOLT0' id='Volt 1'>
*
*       <OFFSET>-4.784000e-02</OFFSET>
*
*       <SLOPE>1.248871e+00</SLOPE>
*
*    </Calibration>
*
*    <Calibration format='VOLT0' id='Volt 2'>
*
*       <OFFSET>-4.864632e-02</OFFSET>
*
*       <SLOPE>1.248714e+00</SLOPE>
*
*    </Calibration>
*
*    <Calibration format='VOLT0' id='Volt 3'>
*
*       <OFFSET>-4.743790e-02</OFFSET>
*
*       <SLOPE>1.248571e+00</SLOPE>
*
*    </Calibration>
*
*    <Calibration format='VOLT0' id='Volt 4'>
*
*       <OFFSET>-4.671263e-02</OFFSET>
*
*       <SLOPE>1.248951e+00</SLOPE>
*
*    </Calibration>
*
*    <Calibration format='VOLT0' id='Volt 5'>
*
*       <OFFSET>-4.871053e-02</OFFSET>
*
*       <SLOPE>1.249136e+00</SLOPE>
*
*    </Calibration>
*
*    <Calibration format='FREQ0' id='external frequency channel'>
*
*       <EXTFREQSF>1.000014e+00</EXTFREQSF>
*
*    </Calibration>
*
* </CalibrationCoefficients>
* <EventCounters DeviceType='SBE19plus' SerialNumber='01907809'>
*
*    <EventSummary numEvents='0'/>
*
* </EventCounters></InstrumentState>
* <Headers>
*
* cast   4 05 Jul 2022 07:38:57 samples 13638 to 14178, avg = 1, stop = mag switch
*
# nquan = 15
# nvalues = 541                         
# units = specified
# name 0 = depFM: Depth [fresh water, m]
# name 1 = dz/dtM: Descent Rate [m/s]
# name 2 = sbeox0Mg/L: Oxygen, SBE 43 [mg/l]
# name 3 = sbeox0PS: Oxygen, SBE 43 [% saturation]
# name 4 = specc: Specific Conductance [uS/cm]
# name 5 = c0uS/cm: Conductivity [uS/cm]
# name 6 = flECO-AFL: Fluorescence, WET Labs ECO-AFL/FL [mg/m^3]
# name 7 = ph: pH
# name 8 = orp: Oxidation Reduction Potential [mV]
# name 9 = par/sat/log: PAR/Logarithmic, Satlantic
# name 10 = turbWETntu0: Turbidity, WET Labs ECO [NTU]
# name 11 = prdM: Pressure, Strain Gauge [db]
# name 12 = prdE: Pressure, Strain Gauge [psi]
# name 13 = tv290C: Temperature [ITS-90, deg C]
# name 14 = flag:  0.000e+00
# span 0 =     -0.718,      2.278       
# span 1 =     -0.351,      0.159       
# span 2 =     0.0305,     7.9886       
# span 3 =      0.347,    100.512       
# span 4 =      3.381,    158.648       
# span 5 =   3.402147, 133.557299       
# span 6 =    -0.0669,     4.1989       
# span 7 =      7.411,      9.542       
# span 8 =    28.0671,   213.3273       
# span 9 = 3.1944e+00, 1.7423e+03       
# span 10 =    -0.3444,    27.5823      
# span 11 =     -0.706,      2.237      
# span 12 =     -1.024,      3.245      
# span 13 =    17.0473,    28.2215      
# span 14 = 0.0000e+00, 0.0000e+00      
# interval = seconds: 0.25
# start_time = Jul 05 2022 07:38:57 [Instrument's time stamp, header]
# bad_flag = -9.990e-29
# <Sensors count="9" >
#   <sensor Channel="1" >
#     <!-- Count, Temperature -->
#     <TemperatureSensor SensorID="58" >
#       <SerialNumber>7809</SerialNumber>
#       <CalibrationDate>25-Sep-21</CalibrationDate>
#       <A0>1.23251324e-003</A0>
#       <A1>2.76322262e-004</A1>
#       <A2>-9.50188734e-007</A2>
#       <A3>1.71801404e-007</A3>
#       <Slope>1.00000000</Slope>
#       <Offset>0.0000</Offset>
#     </TemperatureSensor>
#   </sensor>
#   <sensor Channel="2" >
#     <!-- Frequency 0, Conductivity -->
#     <ConductivitySensor SensorID="3" >
#       <SerialNumber>7809</SerialNumber>
#       <CalibrationDate>25-Sep-21</CalibrationDate>
#       <UseG_J>1</UseG_J>
#       <!-- Cell const and series R are applicable only for wide range sensors. -->
#       <SeriesR>0.0000</SeriesR>
#       <CellConst>2000.0000</CellConst>
#       <ConductivityType>0</ConductivityType>
#       <Coefficients equation="0" >
#         <A>0.00000000e+000</A>
#         <B>0.00000000e+000</B>
#         <C>0.00000000e+000</C>
#         <D>0.00000000e+000</D>
#         <M>0.0</M>
#         <CPcor>-9.57000000e-008</CPcor>
#       </Coefficients>
#       <Coefficients equation="1" >
#         <G>-1.00443970e+000</G>
#         <H>1.26460406e-001</H>
#         <I>-7.85436262e-005</I>
#         <J>2.21093811e-005</J>
#         <CPcor>-9.57000000e-008</CPcor>
#         <CTcor>3.2500e-006</CTcor>
#         <!-- WBOTC not applicable unless ConductivityType = 1. -->
#         <WBOTC>0.00000000e+000</WBOTC>
#       </Coefficients>
#       <Slope>1.00000000</Slope>
#       <Offset>0.00000</Offset>
#     </ConductivitySensor>
#   </sensor>
#   <sensor Channel="3" >
#     <!-- Count, Pressure, Strain Gauge -->
#     <PressureSensor SensorID="46" >
#       <SerialNumber>7809</SerialNumber>
#       <CalibrationDate>10-Sep-21</CalibrationDate>
#       <PA0>4.78919585e-002</PA0>
#       <PA1>4.85365526e-004</PA1>
#       <PA2>-3.68927597e-012</PA2>
#       <PTEMPA0>-5.40164371e+001</PTEMPA0>
#       <PTEMPA1>5.39065456e+001</PTEMPA1>
#       <PTEMPA2>-2.19411190e-002</PTEMPA2>
#       <PTCA0>5.25494622e+005</PTCA0>
#       <PTCA1>1.32519328e+001</PTCA1>
#       <PTCA2>-3.88927502e-001</PTCA2>
#       <PTCB0>2.51668750e+001</PTCB0>
#       <PTCB1>3.75000000e-004</PTCB1>
#       <PTCB2>0.00000000e+000</PTCB2>
#       <Offset>0.000000</Offset>
#     </PressureSensor>
#   </sensor>
#   <sensor Channel="4" >
#     <!-- A/D voltage 0, Oxygen, SBE 43 -->
#     <OxygenSensor SensorID="38" >
#       <SerialNumber>0434</SerialNumber>
#       <CalibrationDate>25-Sep-21</CalibrationDate>
#       <Use2007Equation>1</Use2007Equation>
#       <CalibrationCoefficients equation="0" >
#         <!-- Coefficients for Owens-Millard equation. -->
#         <Boc>0.0000</Boc>
#         <Soc>0.0000e+000</Soc>
#         <offset>0.0000</offset>
#         <Pcor>0.00e+000</Pcor>
#         <Tcor>0.0000</Tcor>
#         <Tau>0.0</Tau>
#       </CalibrationCoefficients>
#       <CalibrationCoefficients equation="1" >
#         <!-- Coefficients for Sea-Bird equation - SBE calibration in 2007 and later. -->
#         <Soc>4.7287e-001</Soc>
#         <offset>-0.5046</offset>
#         <A>-3.6094e-003</A>
#         <B> 1.1544e-004</B>
#         <C>-1.3802e-006</C>
#         <D0> 2.5826e+000</D0>
#         <D1> 1.92634e-004</D1>
#         <D2>-4.64803e-002</D2>
#         <E> 3.6000e-002</E>
#         <Tau20> 0.7700</Tau20>
#         <H1>-3.3000e-002</H1>
#         <H2> 5.0000e+003</H2>
#         <H3> 1.4500e+003</H3>
#       </CalibrationCoefficients>
#     </OxygenSensor>
#   </sensor>
#   <sensor Channel="5" >
#     <!-- A/D voltage 1, PAR/Logarithmic, Satlantic -->
#     <PARLog_SatlanticSensor SensorID="76" >
#       <SerialNumber>1122</SerialNumber>
#       <CalibrationDate>08-Sep-2021</CalibrationDate>
#       <a0>9.6751e-001</a0>
#       <a1>8.0992e-001</a1>
#       <Im>1.3589e+000</Im>
#       <Multiplier>1.0000e+000</Multiplier>
#     </PARLog_SatlanticSensor>
#   </sensor>
#   <sensor Channel="6" >
#     <!-- A/D voltage 2, pH -->
#     <pH_Sensor SensorID="43" >
#       <SerialNumber>0363</SerialNumber>
#       <CalibrationDate>16-Sep-21</CalibrationDate>
#       <Slope>4.5144</Slope>
#       <Offset>2.4957</Offset>
#     </pH_Sensor>
#   </sensor>
#   <sensor Channel="7" >
#     <!-- A/D voltage 3, Oxidation Reduction Potential -->
#     <OxidationReductionPotentialSensor SensorID="41" >
#       <SerialNumber>0363</SerialNumber>
#       <CalibrationDate>16-Sep-21</CalibrationDate>
#       <B>2.499480</B>
#       <M>-0.496195</M>
#       <Offset>0.0</Offset>
#     </OxidationReductionPotentialSensor>
#   </sensor>
#   <sensor Channel="8" >
#     <!-- A/D voltage 4, Fluorometer, WET Labs ECO-AFL/FL -->
#     <FluoroWetlabECO_AFL_FL_Sensor SensorID="20" >
#       <SerialNumber>FLNTURT-2496</SerialNumber>
#       <CalibrationDate>02-Sep-2021</CalibrationDate>
#       <ScaleFactor>4.80000000e+001</ScaleFactor>
#       <!-- Dark output -->
#       <Vblank>0.0550</Vblank>
#     </FluoroWetlabECO_AFL_FL_Sensor>
#   </sensor>
#   <sensor Channel="9" >
#     <!-- A/D voltage 5, Turbidity Meter, WET Labs, ECO-NTU -->
#     <TurbidityMeter SensorID="67" >
#       <SerialNumber>FLNTURT-2496</SerialNumber>
#       <CalibrationDate>02-Sep-2021</CalibrationDate>
#       <ScaleFactor>197.000000</ScaleFactor>
#       <!-- Dark output -->
#       <DarkVoltage>0.070000</DarkVoltage>
#     </TurbidityMeter>
#   </sensor>
# </Sensors>
# datcnv_date = Jul 05 2022 22:57:53, 7.26.7.129 [datcnv_vars = 14]
# datcnv_in = C:\R\Reservoirs\Data\DataNotYetUploadedToEDI\Raw_CTD\RawDownloads\070522_bvr40_SBE19plus01907809_0004.hex C:\R\Reservoirs\Data\DataNotYetUploadedToEDI\Raw_CTD\RawDownloads\SBE19plusV2_7809_Old_CTD.xmlcon
# datcnv_skipover = 0
# datcnv_ox_hysteresis_correction = yes
# datcnv_ox_tau_correction = yes
# filter_date = Jul 05 2022 22:59:01, 7.26.7.129
# filter_in = C:\R\Reservoirs\Data\DataNotYetUploadedToEDI\Raw_CTD\RawDownloads\070522_bvr40_SBE19plus01907809_0004.cnv
# filter_low_pass_tc_A = 0.030
# filter_low_pass_tc_B = 0.150
# filter_low_pass_A_vars = sbeox0Mg/L prdM prdE tv290C
# filter_low_pass_B_vars = depFM dz/dtM sbeox0PS specc c0uS/cm flECO-AFL ph orp par/sat/log turbWETntu0
# alignctd_date = Jul 05 2022 22:59:58, 7.26.7.129
# alignctd_in = C:\R\Reservoirs\Data\DataNotYetUploadedToEDI\Raw_CTD\RawDownloads\070522_bvr40_SBE19plus01907809_0004.cnv
# alignctd_adv = dz/dtM 1.000, sbeox0PS 1.000, specc 1.000, c0uS/cm 1.000, flECO-AFL 1.000, ph 1.000, orp 1.000, turbWETntu0 1.000                                                                                                   
# file_type = ascii
*END*
     -0.106     -0.002     6.8657     89.128     30.468  32.329783     3.6949      9.078   200.9403 2.6012e+02    27.0613     -0.103     -0.150    28.1281 0.0000e+00
     -0.109      0.003     6.9018     89.252     30.428  32.300234     3.7051      9.119   211.5555 2.6384e+02    27.0026     -0.108     -0.156    28.0806 0.0000e+00
     -0.110      0.011     6.9355     89.324     30.411  32.292638     3.7024      9.151   213.1564 2.7389e+02    26.8491     -0.107     -0.156    28.0534 0.0000e+00
     -0.108      0.021     6.9563     89.355     30.420  32.301352     3.6874      9.174   213.3273 2.8707e+02    26.5711     -0.106     -0.155    28.0387 0.0000e+00
     -0.103      0.030     6.9743     89.354     30.466  32.342194     3.6562      9.192   212.5034 2.7284e+02    26.3744     -0.104     -0.151    28.0373 0.0000e+00
     -0.091      0.037     6.9772     89.345     30.536  32.406049     3.6169      9.210   211.6260 2.5370e+02    26.2813     -0.091     -0.132    28.0740 0.0000e+00
     -0.075      0.039     6.9804     89.325     30.572  32.439411     3.5958      9.229   211.6671 2.5716e+02    26.2994     -0.073     -0.106    28.0953 0.0000e+00
     -0.060      0.038     6.9839     89.248     30.563  32.428570     3.7005      9.245   211.9682 2.9196e+02    26.6269     -0.056     -0.081    28.0907 0.0000e+00
     -0.050      0.033     6.9838     88.930     30.539  32.401769     3.9082      9.258   211.5670 3.5921e+02    27.1671     -0.046     -0.067    28.0722 0.0000e+00
     -0.046      0.026     6.9873     88.287     30.514  32.368944     4.0181      9.269   210.6020 4.3196e+02    27.4677     -0.045     -0.065    28.0519 0.0000e+00
     -0.043      0.018     6.9853     87.583     30.505  32.348674     4.0227      9.277   209.8502 5.1008e+02    27.4952     -0.043     -0.062    28.0430 0.0000e+00
     -0.039      0.012     6.9860     87.028     30.512  32.346870     4.0555      9.281   209.6185 5.8105e+02    27.4652     -0.039     -0.056    28.0463 0.0000e+00
     -0.036      0.009     6.9678     86.442     30.518  32.347119     4.1398      9.282   209.4356 6.6125e+02    27.4810     -0.036     -0.052    28.0476 0.0000e+00
     -0.034      0.007     6.9066     85.570     30.525  32.351678     4.1930      9.283   209.1018 7.0882e+02    27.5492     -0.033     -0.047    28.0345 0.0000e+00
     -0.032      0.005     6.8451     84.521     30.512  32.338591     4.1989      9.284   208.6801 6.4236e+02    27.5718     -0.032     -0.046    28.0142 0.0000e+00
     -0.032      0.004     6.8116     83.571     30.487  32.315679     4.1947      9.285   208.0363 6.0676e+02    27.5490     -0.032     -0.046    27.9978 0.0000e+00
     -0.032      0.004     6.7787     82.757     30.494  32.328252     4.1847      9.286   207.3406 6.4104e+02    27.5470     -0.031     -0.045    27.9881 0.0000e+00
     -0.031      0.004     6.7057     81.978     30.522  32.363822     4.1852      9.286   206.8072 6.2266e+02    27.5823     -0.032     -0.046    27.9836 0.0000e+00
     -0.030      0.005     6.6109     81.175     30.518  32.365367     4.1924      9.285   206.2335 5.9172e+02    27.5662     -0.031     -0.043    27.9850 0.0000e+00
     -0.029      0.005     6.5378     80.361     30.497  32.346942     4.1554      9.284   205.6516 5.9814e+02    27.3173     -0.028     -0.041    27.9916 0.0000e+00
     -0.027      0.004     6.4763     79.465     30.479  32.331249     4.0709      9.284   205.1064 5.9345e+02    26.9303     -0.026     -0.038    28.0006 0.0000e+00
     -0.025      0.002     6.4168     78.389     30.450  32.302432     4.0197      9.286   204.6315 5.8026e+02    26.7819     -0.024     -0.035    28.0106 0.0000e+00
     -0.025      0.000     6.3507     77.278     30.463  32.315510     4.0197      9.290   204.4701 6.5906e+02    26.8209     -0.023     -0.034    28.0192 0.0000e+00
     -0.026     -0.002     6.2875     76.368     30.508  32.362575     4.0203      9.294   204.3600 7.6447e+02    26.8208     -0.024     -0.035    28.0265 0.0000e+00
     -0.028     -0.003     6.2240     75.719     30.510  32.364302     4.0101      9.297   203.9881 7.8748e+02    26.7461     -0.027     -0.040    28.0341 0.0000e+00
     -0.030     -0.003     6.1324     75.196     30.482  32.336387     4.0047      9.299   203.5009 7.7764e+02    26.6008     -0.030     -0.044    28.0372 0.0000e+00
     -0.031     -0.002     6.0380     74.688     30.487  32.342054     4.0057      9.300   203.1151 7.8382e+02    26.5336     -0.031     -0.045    28.0348 0.0000e+00
     -0.030      0.000     5.9647     74.207     30.515  32.369419     4.0129      9.300   202.7656 7.9290e+02    26.5824     -0.029     -0.042    28.0316 0.0000e+00
