* Sea-Bird SBE19plus  Data File:
* FileName = C:\R\Reservoirs\Data\DataNotYetUploadedToEDI\Raw_CTD\RawDownloads\070722_ccr50_SBE19plus01907809_0003.hex
* Software version 2.8.0.119
* Temperature SN = 7809
* Conductivity SN = 7809
* System UpLoad Time = Jul 07 2022 15:45:17
* <ApplicationData>
* <Seaterm232>
* <SoftwareVersion>2.8.0.119</SoftwareVersion>
* <BuildDate>07-Nov-2018</BuildDate>
* </Seaterm232>
* </ApplicationData>
* <InstrumentState>
* <HardwareData DeviceType='SBE19plus' SerialNumber='01907809'>
*
*    <Manufacturer>Sea-Bird Electronics, Inc.</Manufacturer>
*
*    <FirmwareVersion>3.1.8</FirmwareVersion>
*
*    <FirmwareDate>Mar  9 2016 16:22:29</FirmwareDate>
*
*    <CommandSetVersion>1.4</CommandSetVersion>
*
*    <PCBAssembly PCBSerialNum='120721' AssemblyNum='41054J'/>
*
*    <PCBAssembly PCBSerialNum='120715' AssemblyNum='41967A'/>
*
*    <PCBAssembly PCBSerialNum='116699' AssemblyNum='41606'/>
*
*    <PCBAssembly PCBSerialNum='120719' AssemblyNum='41059D'/>
*
*    <MfgDate>28-Apr-2017</MfgDate>
*
*    <InternalSensors>
*
*       <Sensor id='Main Temperature'>
*
*          <type>temperature0</type>
*
*          <SerialNumber>01907809</SerialNumber>
*
*       </Sensor>
*
*       <Sensor id='Main Conductivity'>
*
*          <type>conductivity-0</type>
*
*          <SerialNumber>01907809</SerialNumber>
*
*       </Sensor>
*
*       <Sensor id='Main Pressure'>
*
*          <type>strain-0</type>
*
*          <SerialNumber>10586018</SerialNumber>
*
*       </Sensor>
*
*    </InternalSensors>
*
*    <ExternalSensors>
*
*       <Sensor id='volt 0'>
*
*          <type>pH</type>
*
*          <SerialNumber>27-0363</SerialNumber>
*
*       </Sensor>
*
*       <Sensor id='volt 1'>
*
*          <type>ORP</type>
*
*          <SerialNumber>27-0363</SerialNumber>
*
*       </Sensor>
*
*       <Sensor id='volt 2'>
*
*          <type>OXY</type>
*
*          <SerialNumber>43-0434</SerialNumber>
*
*       </Sensor>
*
*       <Sensor id='volt 3'>
*
*          <type>PAR</type>
*
*          <SerialNumber>1122</SerialNumber>
*
*       </Sensor>
*
*       <Sensor id='volt 4'>
*
*          <type>ECO AFL/FL</type>
*
*          <SerialNumber>FLNTURT-2496</SerialNumber>
*
*       </Sensor>
*
*       <Sensor id='volt 5'>
*
*          <type>ECO-NTU</type>
*
*          <SerialNumber>FLNTURT-2496</SerialNumber>
*
*       </Sensor>
*
*       <Sensor id='serial'>
*
*          <type>not assigned</type>
*
*          <SerialNumber>not assigned</SerialNumber>
*
*       </Sensor>
*
*    </ExternalSensors>
*
* </HardwareData>
* <StatusData DeviceType='SBE19plus' SerialNumber='01907809'>
*
*    <DateTime>2022-07-07T12:43:51</DateTime>
*
*    <LoggingState>not logging</LoggingState>
*
*    <EventSummary numEvents='0'/>
*
*    <Power>
*
*       <vMain>12.3</vMain>
*
*       <vLith>8.6</vLith>
*
*       <iMain>63.1</iMain>
*
*       <iPump>43.8</iPump>
*
*       <iExt01>19.5</iExt01>
*
*       <iExt2345>37.5</iExt2345>
*
*    </Power>
*
*    <MemorySummary>
*
*       <Bytes>154215</Bytes>
*
*       <Samples>6705</Samples>
*
*       <SamplesFree>2854083</SamplesFree>
*
*       <SampleLength>23</SampleLength>
*
*       <Profiles>7</Profiles>
*
*    </MemorySummary>
*
* </StatusData>
* <ConfigurationData DeviceType='SBE19plus' SerialNumber='01907809'>
*
*    <ProfileMode>
*
*       <ScansToAverage>1</ScansToAverage>
*
*       <MinimumCondFreq>5</MinimumCondFreq>
*
*       <PumpDelay>40</PumpDelay>
*
*       <AutoRun>no</AutoRun>
*
*       <IgnoreSwitch>no</IgnoreSwitch>
*
*    </ProfileMode>
*
*    <Battery>
*
*       <Type>alkaline</Type>
*
*       <CutOff>7.5</CutOff>
*
*    </Battery>
*
*    <DataChannels>
*
*       <ExtVolt0>yes</ExtVolt0>
*
*       <ExtVolt1>yes</ExtVolt1>
*
*       <ExtVolt2>yes</ExtVolt2>
*
*       <ExtVolt3>yes</ExtVolt3>
*
*       <ExtVolt4>yes</ExtVolt4>
*
*       <ExtVolt5>yes</ExtVolt5>
*
*       <SBE38>no</SBE38>
*
*       <WETLABS>no</WETLABS>
*
*       <OPTODE>no</OPTODE>
*
*       <SBE63>no</SBE63>
*
*       <SeaFET>no</SeaFET>
*
*       <GTD>no</GTD>
*
*    </DataChannels>
*
*    <EchoCharacters>yes</EchoCharacters>
*
*    <OutputExecutedTag>yes</OutputExecutedTag>
*
*    <OutputFormat>raw HEX</OutputFormat>
*
* </ConfigurationData>
* <CalibrationCoefficients DeviceType='SBE19plus' SerialNumber='01907809'>
*
*    <Calibration format='TEMP1' id='Main Temperature'>
*
*       <SerialNum>01907809</SerialNum>
*
*       <CalDate>25-Sep-21</CalDate>
*
*       <TA0>1.232513e-03</TA0>
*
*       <TA1>2.763223e-04</TA1>
*
*       <TA2>-9.501887e-07</TA2>
*
*       <TA3>1.718014e-07</TA3>
*
*       <TOFFSET>0.000000e+00</TOFFSET>
*
*    </Calibration>
*
*    <Calibration format='WBCOND0' id='Main Conductivity'>
*
*       <SerialNum>01907809</SerialNum>
*
*       <CalDate>25-Sep-21</CalDate>
*
*       <G>-1.004440e+00</G>
*
*       <H>1.264604e-01</H>
*
*       <I>-7.854363e-05</I>
*
*       <J>2.210938e-05</J>
*
*       <CPCOR>-9.570000e-08</CPCOR>
*
*       <CTCOR>3.250000e-06</CTCOR>
*
*       <CSLOPE>1.000000e+00</CSLOPE>
*
*    </Calibration>
*
*    <Calibration format='STRAIN0' id='Main Pressure'>
*
*       <SerialNum>10586018</SerialNum>
*
*       <CalDate>10-Sep-21</CalDate>
*
*       <PA0>4.789196e-02</PA0>
*
*       <PA1>4.853655e-04</PA1>
*
*       <PA2>-3.689276e-12</PA2>
*
*       <PTCA0>5.254946e+05</PTCA0>
*
*       <PTCA1>1.325193e+01</PTCA1>
*
*       <PTCA2>-3.889275e-01</PTCA2>
*
*       <PTCB0>2.516687e+01</PTCB0>
*
*       <PTCB1>3.750000e-04</PTCB1>
*
*       <PTCB2>0.000000e+00</PTCB2>
*
*       <PTEMPA0>-5.401644e+01</PTEMPA0>
*
*       <PTEMPA1>5.390655e+01</PTEMPA1>
*
*       <PTEMPA2>-2.194112e-02</PTEMPA2>
*
*       <POFFSET>-1.280000e-01</POFFSET>
*
*       <PRANGE>1.600000e+02</PRANGE>
*
*    </Calibration>
*
*    <Calibration format='VOLT0' id='Volt 0'>
*
*       <OFFSET>-4.920000e-02</OFFSET>
*
*       <SLOPE>1.248122e+00</SLOPE>
*
*    </Calibration>
*
*    <Calibration format='VOLT0' id='Volt 1'>
*
*       <OFFSET>-4.784000e-02</OFFSET>
*
*       <SLOPE>1.248871e+00</SLOPE>
*
*    </Calibration>
*
*    <Calibration format='VOLT0' id='Volt 2'>
*
*       <OFFSET>-4.864632e-02</OFFSET>
*
*       <SLOPE>1.248714e+00</SLOPE>
*
*    </Calibration>
*
*    <Calibration format='VOLT0' id='Volt 3'>
*
*       <OFFSET>-4.743790e-02</OFFSET>
*
*       <SLOPE>1.248571e+00</SLOPE>
*
*    </Calibration>
*
*    <Calibration format='VOLT0' id='Volt 4'>
*
*       <OFFSET>-4.671263e-02</OFFSET>
*
*       <SLOPE>1.248951e+00</SLOPE>
*
*    </Calibration>
*
*    <Calibration format='VOLT0' id='Volt 5'>
*
*       <OFFSET>-4.871053e-02</OFFSET>
*
*       <SLOPE>1.249136e+00</SLOPE>
*
*    </Calibration>
*
*    <Calibration format='FREQ0' id='external frequency channel'>
*
*       <EXTFREQSF>1.000014e+00</EXTFREQSF>
*
*    </Calibration>
*
* </CalibrationCoefficients>
* <EventCounters DeviceType='SBE19plus' SerialNumber='01907809'>
*
*    <EventSummary numEvents='0'/>
*
* </EventCounters></InstrumentState>
* <Headers>
*
* cast   3 07 Jul 2022 08:02:13 samples 2307 to 2678, avg = 1, stop = mag switch
*
# nquan = 15
# nvalues = 372                         
# units = specified
# name 0 = depFM: Depth [fresh water, m]
# name 1 = dz/dtM: Descent Rate [m/s]
# name 2 = sbeox0Mg/L: Oxygen, SBE 43 [mg/l]
# name 3 = sbeox0PS: Oxygen, SBE 43 [% saturation]
# name 4 = specc: Specific Conductance [uS/cm]
# name 5 = c0uS/cm: Conductivity [uS/cm]
# name 6 = flECO-AFL: Fluorescence, WET Labs ECO-AFL/FL [mg/m^3]
# name 7 = ph: pH
# name 8 = orp: Oxidation Reduction Potential [mV]
# name 9 = par/sat/log: PAR/Logarithmic, Satlantic
# name 10 = turbWETntu0: Turbidity, WET Labs ECO [NTU]
# name 11 = prdM: Pressure, Strain Gauge [db]
# name 12 = prdE: Pressure, Strain Gauge [psi]
# name 13 = tv290C: Temperature [ITS-90, deg C]
# name 14 = flag:  0.000e+00
# span 0 =     -0.491,      1.135       
# span 1 =     -0.438,      0.277       
# span 2 =     4.0740,     7.0149       
# span 3 =     51.534,     88.683       
# span 4 =     82.369,     87.861       
# span 5 =  85.980043,  92.112425       
# span 6 =    -1.0540,     6.1110       
# span 7 =      7.718,      8.234       
# span 8 =    -5.4643,   171.9435       
# span 9 = 4.7291e+01, 2.1251e+03       
# span 10 =     1.3717,    12.2568      
# span 11 =     -0.482,      1.113      
# span 12 =     -0.700,      1.615      
# span 13 =    25.7306,    27.8526      
# span 14 = 0.0000e+00, 0.0000e+00      
# interval = seconds: 0.25
# start_time = Jul 07 2022 08:02:13 [Instrument's time stamp, header]
# bad_flag = -9.990e-29
# <Sensors count="9" >
#   <sensor Channel="1" >
#     <!-- Count, Temperature -->
#     <TemperatureSensor SensorID="58" >
#       <SerialNumber>7809</SerialNumber>
#       <CalibrationDate>25-Sep-21</CalibrationDate>
#       <A0>1.23251324e-003</A0>
#       <A1>2.76322262e-004</A1>
#       <A2>-9.50188734e-007</A2>
#       <A3>1.71801404e-007</A3>
#       <Slope>1.00000000</Slope>
#       <Offset>0.0000</Offset>
#     </TemperatureSensor>
#   </sensor>
#   <sensor Channel="2" >
#     <!-- Frequency 0, Conductivity -->
#     <ConductivitySensor SensorID="3" >
#       <SerialNumber>7809</SerialNumber>
#       <CalibrationDate>25-Sep-21</CalibrationDate>
#       <UseG_J>1</UseG_J>
#       <!-- Cell const and series R are applicable only for wide range sensors. -->
#       <SeriesR>0.0000</SeriesR>
#       <CellConst>2000.0000</CellConst>
#       <ConductivityType>0</ConductivityType>
#       <Coefficients equation="0" >
#         <A>0.00000000e+000</A>
#         <B>0.00000000e+000</B>
#         <C>0.00000000e+000</C>
#         <D>0.00000000e+000</D>
#         <M>0.0</M>
#         <CPcor>-9.57000000e-008</CPcor>
#       </Coefficients>
#       <Coefficients equation="1" >
#         <G>-1.00443970e+000</G>
#         <H>1.26460406e-001</H>
#         <I>-7.85436262e-005</I>
#         <J>2.21093811e-005</J>
#         <CPcor>-9.57000000e-008</CPcor>
#         <CTcor>3.2500e-006</CTcor>
#         <!-- WBOTC not applicable unless ConductivityType = 1. -->
#         <WBOTC>0.00000000e+000</WBOTC>
#       </Coefficients>
#       <Slope>1.00000000</Slope>
#       <Offset>0.00000</Offset>
#     </ConductivitySensor>
#   </sensor>
#   <sensor Channel="3" >
#     <!-- Count, Pressure, Strain Gauge -->
#     <PressureSensor SensorID="46" >
#       <SerialNumber>7809</SerialNumber>
#       <CalibrationDate>10-Sep-21</CalibrationDate>
#       <PA0>4.78919585e-002</PA0>
#       <PA1>4.85365526e-004</PA1>
#       <PA2>-3.68927597e-012</PA2>
#       <PTEMPA0>-5.40164371e+001</PTEMPA0>
#       <PTEMPA1>5.39065456e+001</PTEMPA1>
#       <PTEMPA2>-2.19411190e-002</PTEMPA2>
#       <PTCA0>5.25494622e+005</PTCA0>
#       <PTCA1>1.32519328e+001</PTCA1>
#       <PTCA2>-3.88927502e-001</PTCA2>
#       <PTCB0>2.51668750e+001</PTCB0>
#       <PTCB1>3.75000000e-004</PTCB1>
#       <PTCB2>0.00000000e+000</PTCB2>
#       <Offset>0.000000</Offset>
#     </PressureSensor>
#   </sensor>
#   <sensor Channel="4" >
#     <!-- A/D voltage 0, Oxygen, SBE 43 -->
#     <OxygenSensor SensorID="38" >
#       <SerialNumber>0434</SerialNumber>
#       <CalibrationDate>25-Sep-21</CalibrationDate>
#       <Use2007Equation>1</Use2007Equation>
#       <CalibrationCoefficients equation="0" >
#         <!-- Coefficients for Owens-Millard equation. -->
#         <Boc>0.0000</Boc>
#         <Soc>0.0000e+000</Soc>
#         <offset>0.0000</offset>
#         <Pcor>0.00e+000</Pcor>
#         <Tcor>0.0000</Tcor>
#         <Tau>0.0</Tau>
#       </CalibrationCoefficients>
#       <CalibrationCoefficients equation="1" >
#         <!-- Coefficients for Sea-Bird equation - SBE calibration in 2007 and later. -->
#         <Soc>4.7287e-001</Soc>
#         <offset>-0.5046</offset>
#         <A>-3.6094e-003</A>
#         <B> 1.1544e-004</B>
#         <C>-1.3802e-006</C>
#         <D0> 2.5826e+000</D0>
#         <D1> 1.92634e-004</D1>
#         <D2>-4.64803e-002</D2>
#         <E> 3.6000e-002</E>
#         <Tau20> 0.7700</Tau20>
#         <H1>-3.3000e-002</H1>
#         <H2> 5.0000e+003</H2>
#         <H3> 1.4500e+003</H3>
#       </CalibrationCoefficients>
#     </OxygenSensor>
#   </sensor>
#   <sensor Channel="5" >
#     <!-- A/D voltage 1, PAR/Logarithmic, Satlantic -->
#     <PARLog_SatlanticSensor SensorID="76" >
#       <SerialNumber>1122</SerialNumber>
#       <CalibrationDate>08-Sep-2021</CalibrationDate>
#       <a0>9.6751e-001</a0>
#       <a1>8.0992e-001</a1>
#       <Im>1.3589e+000</Im>
#       <Multiplier>1.0000e+000</Multiplier>
#     </PARLog_SatlanticSensor>
#   </sensor>
#   <sensor Channel="6" >
#     <!-- A/D voltage 2, pH -->
#     <pH_Sensor SensorID="43" >
#       <SerialNumber>0363</SerialNumber>
#       <CalibrationDate>16-Sep-21</CalibrationDate>
#       <Slope>4.5144</Slope>
#       <Offset>2.4957</Offset>
#     </pH_Sensor>
#   </sensor>
#   <sensor Channel="7" >
#     <!-- A/D voltage 3, Oxidation Reduction Potential -->
#     <OxidationReductionPotentialSensor SensorID="41" >
#       <SerialNumber>0363</SerialNumber>
#       <CalibrationDate>16-Sep-21</CalibrationDate>
#       <B>2.499480</B>
#       <M>-0.496195</M>
#       <Offset>0.0</Offset>
#     </OxidationReductionPotentialSensor>
#   </sensor>
#   <sensor Channel="8" >
#     <!-- A/D voltage 4, Fluorometer, WET Labs ECO-AFL/FL -->
#     <FluoroWetlabECO_AFL_FL_Sensor SensorID="20" >
#       <SerialNumber>FLNTURT-2496</SerialNumber>
#       <CalibrationDate>02-Sep-2021</CalibrationDate>
#       <ScaleFactor>4.80000000e+001</ScaleFactor>
#       <!-- Dark output -->
#       <Vblank>0.0550</Vblank>
#     </FluoroWetlabECO_AFL_FL_Sensor>
#   </sensor>
#   <sensor Channel="9" >
#     <!-- A/D voltage 5, Turbidity Meter, WET Labs, ECO-NTU -->
#     <TurbidityMeter SensorID="67" >
#       <SerialNumber>FLNTURT-2496</SerialNumber>
#       <CalibrationDate>02-Sep-2021</CalibrationDate>
#       <ScaleFactor>197.000000</ScaleFactor>
#       <!-- Dark output -->
#       <DarkVoltage>0.070000</DarkVoltage>
#     </TurbidityMeter>
#   </sensor>
# </Sensors>
# datcnv_date = Jul 08 2022 12:26:18, 7.26.7.129 [datcnv_vars = 14]
# datcnv_in = C:\R\Reservoirs\Data\DataNotYetUploadedToEDI\Raw_CTD\RawDownloads\070722_ccr08_SBE19plus01907809_0003.hex C:\R\Reservoirs\Data\DataNotYetUploadedToEDI\Raw_CTD\RawDownloads\SBE19plusV2_7809_Old_CTD.xmlcon
# datcnv_skipover = 0
# datcnv_ox_hysteresis_correction = yes
# datcnv_ox_tau_correction = yes
# filter_date = Jul 08 2022 12:27:35, 7.26.7.129
# filter_in = C:\R\Reservoirs\Data\DataNotYetUploadedToEDI\Raw_CTD\RawDownloads\070722_ccr08_SBE19plus01907809_0003.cnv
# filter_low_pass_tc_A = 0.030
# filter_low_pass_tc_B = 0.150
# filter_low_pass_A_vars = sbeox0Mg/L prdM prdE tv290C
# filter_low_pass_B_vars = depFM dz/dtM sbeox0PS specc c0uS/cm flECO-AFL ph orp par/sat/log turbWETntu0
# alignctd_date = Jul 08 2022 12:28:19, 7.26.7.129
# alignctd_in = C:\R\Reservoirs\Data\DataNotYetUploadedToEDI\Raw_CTD\RawDownloads\070722_ccr08_SBE19plus01907809_0003.cnv
# alignctd_adv = dz/dtM 1.000, sbeox0PS 1.000, specc 1.000, c0uS/cm 1.000, flECO-AFL 1.000, ph 1.000, orp 1.000, turbWETntu0 1.000                                                                                                   
# file_type = ascii
*END*
     -0.475      0.154     6.9574     85.288     87.861  92.112425    -1.0540      8.233    98.2348 1.0898e+03     6.3460     -0.482     -0.699    25.7306 0.0000e+00
     -0.421      0.203     6.9431     85.345     87.416  92.094674    -1.0416      8.234    92.7488 1.7172e+03     6.3546     -0.426     -0.618    25.8542 0.0000e+00
     -0.339      0.244     6.8678     85.535     86.984  91.866920    -0.5477      8.218    87.7885 1.8736e+03     5.1034     -0.330     -0.479    26.4424 0.0000e+00
     -0.254      0.272     6.7867     85.864     86.770  91.711726     0.3651      8.200    84.5489 1.6820e+03     2.7640     -0.246     -0.357    27.0684 0.0000e+00
     -0.178      0.277     6.7374     86.300     86.683  91.617226     0.8648      8.183    85.3275 1.9061e+03     1.5016     -0.172     -0.250    27.4581 0.0000e+00
     -0.106      0.261     6.7074     86.779     86.646  91.550935     0.9068      8.167    89.9759 2.1251e+03     1.3865     -0.103     -0.151    27.7200 0.0000e+00
     -0.038      0.233     6.7101     87.228     86.614  91.482423     0.8988      8.155    92.0538 2.0910e+03     1.3717     -0.034     -0.049    27.8313 0.0000e+00
      0.022      0.203     6.7338     87.618     86.597  91.424646     0.8765      8.148    90.0596 2.1166e+03     1.6988      0.028      0.042    27.8526 0.0000e+00
      0.066      0.176     6.7709     87.907     86.582  91.360975     0.8448      8.143    91.4179 1.9735e+03     2.3690      0.068      0.099    27.8426 0.0000e+00
      0.100      0.153     6.8139     88.077     86.552  91.284766     0.8316      8.140    96.7756 1.4283e+03     2.7801      0.099      0.143    27.8244 0.0000e+00
      0.131      0.137     6.8509     88.199     86.510  91.202573     0.8342      8.136   100.2042 1.1990e+03     2.8441      0.130      0.188    27.8047 0.0000e+00
      0.161      0.127     6.8856     88.325     86.478  91.130133     0.8343      8.133   101.2971 1.4817e+03     2.9381      0.158      0.230    27.7832 0.0000e+00
      0.190      0.121     6.9148     88.558     86.488  91.108272     0.8410      8.129   100.3524 1.5343e+03     3.1301      0.184      0.266    27.7519 0.0000e+00
      0.224      0.121     6.9260     88.683     86.531  91.128945     0.8490      8.127    97.5579 1.4750e+03     3.2529      0.219      0.317    27.7249 0.0000e+00
      0.259      0.126     6.9392     87.820     86.546  91.125710     0.8476      8.126    96.2469 1.5840e+03     3.2613      0.259      0.376    27.7071 0.0000e+00
      0.287      0.132     6.9484     85.470     86.507  91.069136     0.8495      8.124    96.9764 1.7466e+03     3.3343      0.284      0.410    27.6822 0.0000e+00
      0.312      0.134     6.9646     82.171     86.472  91.017142     0.8716      8.120    98.1189 1.7463e+03     3.5204      0.301      0.436    27.6617 0.0000e+00
      0.348      0.128     7.0149     78.685     86.473  91.005699     0.8985      8.115    99.3917 1.4895e+03     3.6332      0.336      0.488    27.6498 0.0000e+00
      0.396      0.117     6.9675     75.298     86.535  91.057925     0.9075      8.110   100.6640 1.2564e+03     3.6742      0.391      0.568    27.6385 0.0000e+00
      0.436      0.101     6.7590     72.115     86.626  91.139914     0.9145      8.107   101.7150 1.1574e+03     3.7078      0.435      0.632    27.6301 0.0000e+00
      0.459      0.081     6.4738     69.475     86.670  91.170396     0.9331      8.104   102.7219 1.1118e+03     3.7313      0.453      0.657    27.6209 0.0000e+00
      0.469      0.056     6.1956     67.702     86.685  91.172116     0.9487      8.101   103.8033 1.1078e+03     3.7196      0.461      0.669    27.6142 0.0000e+00
      0.474      0.032     5.9322     66.833     86.685  91.160701     0.9535      8.097   104.8095 1.1290e+03     3.6689      0.466      0.676    27.6074 0.0000e+00
      0.477      0.016     5.6681     66.591     86.631  91.095937     0.9499      8.095   105.6816 1.2605e+03     3.7332      0.469      0.680    27.5989 0.0000e+00
      0.477      0.008     5.4510     66.597     86.568  91.024897     0.9464      8.095   106.4323 1.4548e+03     3.8818      0.469      0.679    27.5891 0.0000e+00
