* Sea-Bird SBE19plus  Data File:
* FileName = C:\DATA\070819_fcr50_0006.hex
* Software version 2.8.0.119
* Temperature SN = 7809
* Conductivity SN = 7809
* System UpLoad Time = Jul 08 2019 15:02:47
* <ApplicationData>
* <Seaterm232>
* <SoftwareVersion>2.8.0.119</SoftwareVersion>
* <BuildDate>07-Nov-2018</BuildDate>
* </Seaterm232>
* </ApplicationData>
* <InstrumentState>
* <HardwareData DeviceType='SBE19plus' SerialNumber='01907809'>
*
*    <Manufacturer>Sea-Bird Electronics, Inc.</Manufacturer>
*
*    <FirmwareVersion>3.1.8</FirmwareVersion>
*
*    <FirmwareDate>Mar  9 2016 16:22:29</FirmwareDate>
*
*    <CommandSetVersion>1.4</CommandSetVersion>
*
*    <PCBAssembly PCBSerialNum='120721' AssemblyNum='41054J'/>
*
*    <PCBAssembly PCBSerialNum='120715' AssemblyNum='41967A'/>
*
*    <PCBAssembly PCBSerialNum='116699' AssemblyNum='41606'/>
*
*    <PCBAssembly PCBSerialNum='120719' AssemblyNum='41059D'/>
*
*    <MfgDate>28-Apr-2017</MfgDate>
*
*    <InternalSensors>
*
*       <Sensor id='Main Temperature'>
*
*          <type>temperature0</type>
*
*          <SerialNumber>01907809</SerialNumber>
*
*       </Sensor>
*
*       <Sensor id='Main Conductivity'>
*
*          <type>conductivity-0</type>
*
*          <SerialNumber>01907809</SerialNumber>
*
*       </Sensor>
*
*       <Sensor id='Main Pressure'>
*
*          <type>strain-0</type>
*
*          <SerialNumber>10586018</SerialNumber>
*
*       </Sensor>
*
*    </InternalSensors>
*
*    <ExternalSensors>
*
*       <Sensor id='volt 0'>
*
*          <type>pH</type>
*
*          <SerialNumber>27-0363</SerialNumber>
*
*       </Sensor>
*
*       <Sensor id='volt 1'>
*
*          <type>ORP</type>
*
*          <SerialNumber>27-0363</SerialNumber>
*
*       </Sensor>
*
*       <Sensor id='volt 2'>
*
*          <type>OXY</type>
*
*          <SerialNumber>43-0434</SerialNumber>
*
*       </Sensor>
*
*       <Sensor id='volt 3'>
*
*          <type>PAR</type>
*
*          <SerialNumber>1122</SerialNumber>
*
*       </Sensor>
*
*       <Sensor id='volt 4'>
*
*          <type>ECO AFL/FL</type>
*
*          <SerialNumber>FLNTURT-2496</SerialNumber>
*
*       </Sensor>
*
*       <Sensor id='volt 5'>
*
*          <type>ECO-NTU</type>
*
*          <SerialNumber>FLNTURT-2496</SerialNumber>
*
*       </Sensor>
*
*       <Sensor id='serial'>
*
*          <type>not assigned</type>
*
*          <SerialNumber>not assigned</SerialNumber>
*
*       </Sensor>
*
*    </ExternalSensors>
*
* </HardwareData>
* <StatusData DeviceType='SBE19plus' SerialNumber='01907809'>
*
*    <DateTime>2019-07-08T15:00:04</DateTime>
*
*    <LoggingState>not logging</LoggingState>
*
*    <EventSummary numEvents='0'/>
*
*    <Power>
*
*       <vMain>12.6</vMain>
*
*       <vLith>8.8</vLith>
*
*       <iMain>63.1</iMain>
*
*       <iPump>40.7</iPump>
*
*       <iExt01>19.2</iExt01>
*
*       <iExt2345>35.8</iExt2345>
*
*    </Power>
*
*    <MemorySummary>
*
*       <Bytes>112608</Bytes>
*
*       <Samples>4896</Samples>
*
*       <SamplesFree>2855892</SamplesFree>
*
*       <SampleLength>23</SampleLength>
*
*       <Profiles>6</Profiles>
*
*    </MemorySummary>
*
* </StatusData>
* <ConfigurationData DeviceType='SBE19plus' SerialNumber='01907809'>
*
*    <ProfileMode>
*
*       <ScansToAverage>1</ScansToAverage>
*
*       <MinimumCondFreq>5</MinimumCondFreq>
*
*       <PumpDelay>45</PumpDelay>
*
*       <AutoRun>no</AutoRun>
*
*       <IgnoreSwitch>no</IgnoreSwitch>
*
*    </ProfileMode>
*
*    <Battery>
*
*       <Type>alkaline</Type>
*
*       <CutOff>7.5</CutOff>
*
*    </Battery>
*
*    <DataChannels>
*
*       <ExtVolt0>yes</ExtVolt0>
*
*       <ExtVolt1>yes</ExtVolt1>
*
*       <ExtVolt2>yes</ExtVolt2>
*
*       <ExtVolt3>yes</ExtVolt3>
*
*       <ExtVolt4>yes</ExtVolt4>
*
*       <ExtVolt5>yes</ExtVolt5>
*
*       <SBE38>no</SBE38>
*
*       <WETLABS>no</WETLABS>
*
*       <OPTODE>no</OPTODE>
*
*       <SBE63>no</SBE63>
*
*       <SeaFET>no</SeaFET>
*
*       <GTD>no</GTD>
*
*    </DataChannels>
*
*    <EchoCharacters>yes</EchoCharacters>
*
*    <OutputExecutedTag>yes</OutputExecutedTag>
*
*    <OutputFormat>raw HEX</OutputFormat>
*
* </ConfigurationData>
* <CalibrationCoefficients DeviceType='SBE19plus' SerialNumber='01907809'>
*
*    <Calibration format='TEMP1' id='Main Temperature'>
*
*       <SerialNum>01907809</SerialNum>
*
*       <CalDate>24-Mar-19</CalDate>
*
*       <TA0>1.217923e-03</TA0>
*
*       <TA1>2.816693e-04</TA1>
*
*       <TA2>-1.603333e-06</TA2>
*
*       <TA3>1.984146e-07</TA3>
*
*       <TOFFSET>0.000000e+00</TOFFSET>
*
*    </Calibration>
*
*    <Calibration format='WBCOND0' id='Main Conductivity'>
*
*       <SerialNum>01907809</SerialNum>
*
*       <CalDate>24-Mar-19</CalDate>
*
*       <G>-1.005893e+00</G>
*
*       <H>1.268163e-01</H>
*
*       <I>-1.515604e-04</I>
*
*       <J>2.671373e-05</J>
*
*       <CPCOR>-9.570000e-08</CPCOR>
*
*       <CTCOR>3.250000e-06</CTCOR>
*
*       <CSLOPE>1.000000e+00</CSLOPE>
*
*    </Calibration>
*
*    <Calibration format='STRAIN0' id='Main Pressure'>
*
*       <SerialNum>10586018</SerialNum>
*
*       <CalDate>11-Mar-19</CalDate>
*
*       <PA0>4.565618e-02</PA0>
*
*       <PA1>4.850951e-04</PA1>
*
*       <PA2>-2.883271e-12</PA2>
*
*       <PTCA0>5.252467e+05</PTCA0>
*
*       <PTCA1>1.223042e+01</PTCA1>
*
*       <PTCA2>-3.567450e-01</PTCA2>
*
*       <PTCB0>2.516687e+01</PTCB0>
*
*       <PTCB1>3.750000e-04</PTCB1>
*
*       <PTCB2>0.000000e+00</PTCB2>
*
*       <PTEMPA0>-5.487846e+01</PTEMPA0>
*
*       <PTEMPA1>5.537568e+01</PTEMPA1>
*
*       <PTEMPA2>-5.867271e-01</PTEMPA2>
*
*       <POFFSET>7.140000e-01</POFFSET>
*
*       <PRANGE>1.600000e+02</PRANGE>
*
*    </Calibration>
*
*    <Calibration format='VOLT0' id='Volt 0'>
*
*       <OFFSET>-4.920000e-02</OFFSET>
*
*       <SLOPE>1.248122e+00</SLOPE>
*
*    </Calibration>
*
*    <Calibration format='VOLT0' id='Volt 1'>
*
*       <OFFSET>-4.784000e-02</OFFSET>
*
*       <SLOPE>1.248871e+00</SLOPE>
*
*    </Calibration>
*
*    <Calibration format='VOLT0' id='Volt 2'>
*
*       <OFFSET>-4.864632e-02</OFFSET>
*
*       <SLOPE>1.248714e+00</SLOPE>
*
*    </Calibration>
*
*    <Calibration format='VOLT0' id='Volt 3'>
*
*       <OFFSET>-4.743790e-02</OFFSET>
*
*       <SLOPE>1.248571e+00</SLOPE>
*
*    </Calibration>
*
*    <Calibration format='VOLT0' id='Volt 4'>
*
*       <OFFSET>-4.671263e-02</OFFSET>
*
*       <SLOPE>1.248951e+00</SLOPE>
*
*    </Calibration>
*
*    <Calibration format='VOLT0' id='Volt 5'>
*
*       <OFFSET>-4.871053e-02</OFFSET>
*
*       <SLOPE>1.249136e+00</SLOPE>
*
*    </Calibration>
*
*    <Calibration format='FREQ0' id='external frequency channel'>
*
*       <EXTFREQSF>1.000014e+00</EXTFREQSF>
*
*    </Calibration>
*
* </CalibrationCoefficients>
* <EventCounters DeviceType='SBE19plus' SerialNumber='01907809'>
*
*    <EventSummary numEvents='0'/>
*
* </EventCounters></InstrumentState>
* <Headers>
*
* cast   6 08 Jul 2019 14:49:07 samples 3985 to 4896, avg = 1, stop = mag switch
*
# nquan = 18
# nvalues = 805                         
# units = specified
# name 0 = depFM: Depth [fresh water, m]
# name 1 = tv290C: Temperature [ITS-90, deg C]
# name 2 = sbeox0Mg/L: Oxygen, SBE 43 [mg/l]
# name 3 = sbeox0PS: Oxygen, SBE 43 [% saturation]
# name 4 = c0uS/cm: Conductivity [uS/cm]
# name 5 = specc: Specific Conductance [uS/cm]
# name 6 = ph: pH
# name 7 = orp: Oxidation Reduction Potential [mV]
# name 8 = flECO-AFL: Fluorescence, WET Labs ECO-AFL/FL [mg/m^3]
# name 9 = turbWETntu0: Turbidity, WET Labs ECO [NTU]
# name 10 = sal00: Salinity, Practical [PSU]
# name 11 = dz/dtM: Descent Rate [m/s]
# name 12 = prdM: Pressure, Strain Gauge [db]
# name 13 = prdE: Pressure, Strain Gauge [psi]
# name 14 = scan: Scan Count
# name 15 = par/sat/log: PAR/Logarithmic, Satlantic
# name 16 = density00: Density [density, kg/m^3]
# name 17 = flag:  0.000e+00
# span 0 =     -0.619,      9.595       
# span 1 =    10.1169,    34.3288       
# span 2 =     0.0694,    14.6989       
# span 3 =      0.618,    166.934       
# span 4 =  -0.367624, 201.637754       
# span 5 =     -0.526,    280.779       
# span 6 =     -2.050,      7.249       
# span 7 = -1240.7455,  1240.2295       
# span 8 =    -0.1407,    10.0599       
# span 9 =    -3.6857,    41.1454       
# span 10 =     0.0000,     0.1319      
# span 11 =     -0.107,      0.230      
# span 12 =     -0.607,      9.409      
# span 13 =     -0.880,     13.647      
# span 14 =          1,        805      
# span 15 = 1.2265e-01, 2.6240e+03      
# span 16 =   994.2583,   999.8119      
# span 17 = 0.0000e+00, 0.0000e+00      
# interval = seconds: 0.25
# start_time = Jul 08 2019 14:49:07 [Instrument's time stamp, header]
# bad_flag = -9.990e-29
# <Sensors count="9" >
#   <sensor Channel="1" >
#     <!-- Count, Temperature -->
#     <TemperatureSensor SensorID="58" >
#       <SerialNumber>7809</SerialNumber>
#       <CalibrationDate>24-Mar-19</CalibrationDate>
#       <A0>1.21792325e-003</A0>
#       <A1>2.81669265e-004</A1>
#       <A2>-1.60333336e-006</A2>
#       <A3>1.98414625e-007</A3>
#       <Slope>1.00000000</Slope>
#       <Offset>0.0000</Offset>
#     </TemperatureSensor>
#   </sensor>
#   <sensor Channel="2" >
#     <!-- Frequency 0, Conductivity -->
#     <ConductivitySensor SensorID="3" >
#       <SerialNumber>7809</SerialNumber>
#       <CalibrationDate>24-Mar-19</CalibrationDate>
#       <UseG_J>1</UseG_J>
#       <!-- Cell const and series R are applicable only for wide range sensors. -->
#       <SeriesR>0.0000</SeriesR>
#       <CellConst>2000.0000</CellConst>
#       <ConductivityType>0</ConductivityType>
#       <Coefficients equation="0" >
#         <A>0.00000000e+000</A>
#         <B>0.00000000e+000</B>
#         <C>0.00000000e+000</C>
#         <D>0.00000000e+000</D>
#         <M>0.0</M>
#         <CPcor>-9.57000000e-008</CPcor>
#       </Coefficients>
#       <Coefficients equation="1" >
#         <G>-1.00589325e+000</G>
#         <H>1.26816302e-001</H>
#         <I>-1.51560448e-004</I>
#         <J>2.67137274e-005</J>
#         <CPcor>-9.57000000e-008</CPcor>
#         <CTcor>3.2500e-006</CTcor>
#         <!-- WBOTC not applicable unless ConductivityType = 1. -->
#         <WBOTC>0.00000000e+000</WBOTC>
#       </Coefficients>
#       <Slope>1.00000000</Slope>
#       <Offset>0.00000</Offset>
#     </ConductivitySensor>
#   </sensor>
#   <sensor Channel="3" >
#     <!-- Count, Pressure, Strain Gauge -->
#     <PressureSensor SensorID="46" >
#       <SerialNumber>7809</SerialNumber>
#       <CalibrationDate>11-Mar-19</CalibrationDate>
#       <PA0>4.56561833e-002</PA0>
#       <PA1>4.85095118e-004</PA1>
#       <PA2>-2.88327090e-012</PA2>
#       <PTEMPA0>-5.48784562e+001</PTEMPA0>
#       <PTEMPA1>5.53756816e+001</PTEMPA1>
#       <PTEMPA2>-5.86727098e-001</PTEMPA2>
#       <PTCA0>5.25246745e+005</PTCA0>
#       <PTCA1>1.22304214e+001</PTCA1>
#       <PTCA2>-3.56745036e-001</PTCA2>
#       <PTCB0>2.51668750e+001</PTCB0>
#       <PTCB1>3.75000000e-004</PTCB1>
#       <PTCB2>0.00000000e+000</PTCB2>
#       <Offset>0.000000</Offset>
#     </PressureSensor>
#   </sensor>
#   <sensor Channel="4" >
#     <!-- A/D voltage 0, Oxygen, SBE 43 -->
#     <OxygenSensor SensorID="38" >
#       <SerialNumber>0434</SerialNumber>
#       <CalibrationDate>13-Apr-19</CalibrationDate>
#       <Use2007Equation>1</Use2007Equation>
#       <CalibrationCoefficients equation="0" >
#         <!-- Coefficients for Owens-Millard equation. -->
#         <Boc>0.0000</Boc>
#         <Soc>0.0000e+000</Soc>
#         <offset>0.0000</offset>
#         <Pcor>0.00e+000</Pcor>
#         <Tcor>0.0000</Tcor>
#         <Tau>0.0</Tau>
#       </CalibrationCoefficients>
#       <CalibrationCoefficients equation="1" >
#         <!-- Coefficients for Sea-Bird equation - SBE calibration in 2007 and later. -->
#         <Soc>4.2007e-001</Soc>
#         <offset>-0.6109</offset>
#         <A>-4.3656e-003</A>
#         <B> 1.7017e-004</B>
#         <C>-2.5341e-006</C>
#         <D0> 2.5826e+000</D0>
#         <D1> 1.92634e-004</D1>
#         <D2>-4.64803e-002</D2>
#         <E> 3.6000e-002</E>
#         <Tau20> 1.1800</Tau20>
#         <H1>-3.3000e-002</H1>
#         <H2> 5.0000e+003</H2>
#         <H3> 1.4500e+003</H3>
#       </CalibrationCoefficients>
#     </OxygenSensor>
#   </sensor>
#   <sensor Channel="5" >
#     <!-- A/D voltage 1, PAR/Logarithmic, Satlantic -->
#     <PARLog_SatlanticSensor SensorID="76" >
#       <SerialNumber>1122</SerialNumber>
#       <CalibrationDate>08-May-2019</CalibrationDate>
#       <a0>9.7456e-001</a0>
#       <a1>8.1640e-001</a1>
#       <Im>1.3589e+000</Im>
#       <Multiplier>1.0000e+000</Multiplier>
#     </PARLog_SatlanticSensor>
#   </sensor>
#   <sensor Channel="6" >
#     <!-- A/D voltage 2, pH -->
#     <pH_Sensor SensorID="43" >
#       <SerialNumber>0363</SerialNumber>
#       <CalibrationDate>15-Apr-19</CalibrationDate>
#       <Slope>4.5952</Slope>
#       <Offset>2.5370</Offset>
#     </pH_Sensor>
#   </sensor>
#   <sensor Channel="7" >
#     <!-- A/D voltage 3, Oxidation Reduction Potential -->
#     <OxidationReductionPotentialSensor SensorID="41" >
#       <SerialNumber>0363</SerialNumber>
#       <CalibrationDate>15-Apr-19</CalibrationDate>
#       <B>2.499480</B>
#       <M>-0.496195</M>
#       <Offset>0.0</Offset>
#     </OxidationReductionPotentialSensor>
#   </sensor>
#   <sensor Channel="8" >
#     <!-- A/D voltage 4, Fluorometer, WET Labs ECO-AFL/FL -->
#     <FluoroWetlabECO_AFL_FL_Sensor SensorID="20" >
#       <SerialNumber>FLNTURT-2496</SerialNumber>
#       <CalibrationDate>08-May-2019</CalibrationDate>
#       <ScaleFactor>5.00000000e+001</ScaleFactor>
#       <!-- Dark output -->
#       <Vblank>0.0550</Vblank>
#     </FluoroWetlabECO_AFL_FL_Sensor>
#   </sensor>
#   <sensor Channel="9" >
#     <!-- A/D voltage 5, Turbidity Meter, WET Labs, ECO-NTU -->
#     <TurbidityMeter SensorID="67" >
#       <SerialNumber>FLNTURT-2496</SerialNumber>
#       <CalibrationDate>08-May-2019</CalibrationDate>
#       <ScaleFactor>189.000000</ScaleFactor>
#       <!-- Dark output -->
#       <DarkVoltage>0.071000</DarkVoltage>
#     </TurbidityMeter>
#   </sensor>
# </Sensors>
# datcnv_date = Jul 09 2019 07:37:44, 7.26.7.129 [datcnv_vars = 17]
# datcnv_in = C:\DATA\070819_fcr50_b.hex C:\DATA\SBE19plusV2_7809.xmlcon
# datcnv_skipover = 0
# datcnv_ox_hysteresis_correction = yes
# datcnv_ox_tau_correction = yes
# filter_date = Jul 09 2019 07:39:48, 7.26.7.129
# filter_in = C:\DATA\070819_fcr50_b.cnv
# filter_low_pass_tc_A = 0.030
# filter_low_pass_tc_B = 0.150
# filter_low_pass_A_vars = tv290C c0uS/cm par/sat/log density00
# filter_low_pass_B_vars = prdM prdE
# alignctd_date = Jul 09 2019 07:40:15, 7.26.7.129
# alignctd_in = C:\DATA\070819_fcr50_b.cnv
# alignctd_adv = tv290C 0.500, sbeox0Mg/L 3.000, sbeox0PS 3.000                                                                                                                                                                      
# file_type = ascii
*END*
     -0.618    34.3288     6.8030     96.788  -0.141835     -0.221      6.026 -1240.7455    -0.1178    -0.5566     0.0000 4.2106e-16     -0.606     -0.879          1 2.6031e+02   994.2583 0.0000e+00
     -0.618    34.3246     6.8061     96.833   0.844109      0.813      6.025 -1240.7455    -0.1407    -0.5277     0.0148     -0.000     -0.606     -0.880          2 2.3216e+02   994.2683 0.0000e+00
     -0.618    34.3235     6.8023     96.779   0.537946      0.414      6.031 -1240.7455    -0.1102    -0.8017     0.0149     -0.000     -0.606     -0.880          3 2.3807e+02   994.2704 0.0000e+00
     -0.618    34.3242     6.7994     96.739   0.860354      0.672      6.043 -1240.7455    -0.0186     3.6829     0.0148     -0.000     -0.606     -0.879          4 1.9124e+02   994.2725 0.0000e+00
     -0.618    34.3250     6.7915     96.627   0.827430      0.860      6.052 -1240.7455    -0.0606     3.5098     0.0148     -0.000     -0.606     -0.879          5 2.8852e+02   994.2707 0.0000e+00
     -0.619    34.3228     6.7876     96.572  -0.367624     -0.526      6.058 -1240.7455    -0.0453     3.6396     0.0000     -0.000     -0.607     -0.880          6 2.3136e+02   994.2629 0.0000e+00
     -0.619    34.3164     6.7835     96.514   0.395279      0.508      6.059 -1240.7455    -0.0606     3.5963     0.0148     -0.000     -0.607     -0.880          7 6.1870e+02   994.2701 0.0000e+00
     -0.618    34.3104     6.7857     96.545   0.794971      0.555      6.100 -1240.7455    -0.0759     3.5675     0.0148     -0.000     -0.607     -0.880          8 2.9206e+02   994.2735 0.0000e+00
     -0.619    34.3080     6.7843     96.523   1.708490      1.471      6.113 -1240.7455     0.0577    -0.3547     0.0147     -0.000     -0.607     -0.880          9 8.6002e+02   994.2739 0.0000e+00
     -0.618    34.3077     6.7877     96.571   1.624954      1.471      6.114 -1240.7455     0.0424    -0.3979     0.0147     -0.000     -0.606     -0.879         10 1.9848e+03   994.2770 0.0000e+00
     -0.618    34.3083     6.7877     96.569   0.603124      0.320      6.115 -1240.7455     0.0882    -0.3114     0.0149 -4.549e-07     -0.606     -0.879         11 9.6373e+02   994.2772 0.0000e+00
     -0.618    34.3085     6.8353     96.739   1.323569      1.307      6.113 -1240.7455     0.0729    -0.2826     0.0147     -0.000     -0.606     -0.880         12 2.0327e+03   994.2777 0.0000e+00
     -0.618    34.3093     7.0003     97.353   0.905845      0.625      6.117 -1240.7455    -0.0644    -0.5998     0.0148      0.000     -0.606     -0.880         13 2.4742e+03   994.2772 0.0000e+00
     -0.618    34.3097     7.1382     97.867   0.708821      0.672      5.860 -1240.7455    -0.0301    -0.4845     0.0148      0.000     -0.606     -0.879         14 2.2819e+03   994.2773 0.0000e+00
     -0.618    34.3108     7.2423     98.318   0.947547      0.766      4.764 -1240.7455    -0.0339    -0.5277     0.0148      0.000     -0.606     -0.879         15 2.1665e+03   994.2770 0.0000e+00
     -0.618    34.3093     7.3318     98.710   0.904567      0.766      2.796 -1240.7455    -0.0453    -0.5277     0.0148      0.000     -0.606     -0.879         16 4.5575e+02   994.2768 0.0000e+00
     -0.618    34.3119     7.4270     99.299   0.998958      0.860      0.998 -1240.7455     0.2560    -0.8161     0.0148      0.000     -0.606     -0.879         17 2.7926e+02   994.2764 0.0000e+00
     -0.618    34.3080     7.5075     99.926   0.623013      0.508     -0.240 -1240.7455     0.2484    -0.8594     0.0148      0.000     -0.606     -0.879         18 3.9910e+02   994.2770 0.0000e+00
     -0.618    34.3130     7.5748    100.551   0.810382      0.672     -1.385 -1240.7455     0.2408    -0.7729     0.0148      0.000     -0.606     -0.879         19 3.6978e+02   994.2761 0.0000e+00
     -0.617    34.3026     7.6329    101.129   0.410807      0.414     -2.050 -1240.7455     0.2598    -0.8594     0.0149      0.000     -0.605     -0.878         20 3.5367e+02   994.2775 0.0000e+00
     -0.617    34.3174     7.6692    101.473   1.061116      0.719     -2.050 -1240.7455    -0.1331    -0.6287     0.0148      0.001     -0.604     -0.877         21 4.4478e+02   994.2758 0.0000e+00
     -0.617    33.9541     7.6810    101.649   0.326473      0.625     -2.050 -1240.7455    -0.1178    -0.4556     0.0148      0.001     -0.598     -0.868         22 2.9313e+02   994.2791 0.0000e+00
