* Sea-Bird SBE19plus  Data File:
* FileName = C:\R\Reservoirs\Data\DataNotYetUploadedToEDI\Raw_CTD\RawDownloads\071122_bvr40_0001.hex
* Software version 2.8.0.119
* Temperature SN = 7809
* Conductivity SN = 7809
* System UpLoad Time = Jul 14 2022 16:05:20
* <ApplicationData>
* <Seaterm232>
* <SoftwareVersion>2.8.0.119</SoftwareVersion>
* <BuildDate>07-Nov-2018</BuildDate>
* </Seaterm232>
* </ApplicationData>
* <InstrumentState>
* <HardwareData DeviceType='SBE19plus' SerialNumber='01907809'>
*
*    <Manufacturer>Sea-Bird Electronics, Inc.</Manufacturer>
*
*    <FirmwareVersion>3.1.8</FirmwareVersion>
*
*    <FirmwareDate>Mar  9 2016 16:22:29</FirmwareDate>
*
*    <CommandSetVersion>1.4</CommandSetVersion>
*
*    <PCBAssembly PCBSerialNum='120721' AssemblyNum='41054J'/>
*
*    <PCBAssembly PCBSerialNum='120715' AssemblyNum='41967A'/>
*
*    <PCBAssembly PCBSerialNum='116699' AssemblyNum='41606'/>
*
*    <PCBAssembly PCBSerialNum='120719' AssemblyNum='41059D'/>
*
*    <MfgDate>28-Apr-2017</MfgDate>
*
*    <InternalSensors>
*
*       <Sensor id='Main Temperature'>
*
*          <type>temperature0</type>
*
*          <SerialNumber>01907809</SerialNumber>
*
*       </Sensor>
*
*       <Sensor id='Main Conductivity'>
*
*          <type>conductivity-0</type>
*
*          <SerialNumber>01907809</SerialNumber>
*
*       </Sensor>
*
*       <Sensor id='Main Pressure'>
*
*          <type>strain-0</type>
*
*          <SerialNumber>10586018</SerialNumber>
*
*       </Sensor>
*
*    </InternalSensors>
*
*    <ExternalSensors>
*
*       <Sensor id='volt 0'>
*
*          <type>pH</type>
*
*          <SerialNumber>27-0363</SerialNumber>
*
*       </Sensor>
*
*       <Sensor id='volt 1'>
*
*          <type>ORP</type>
*
*          <SerialNumber>27-0363</SerialNumber>
*
*       </Sensor>
*
*       <Sensor id='volt 2'>
*
*          <type>OXY</type>
*
*          <SerialNumber>43-0434</SerialNumber>
*
*       </Sensor>
*
*       <Sensor id='volt 3'>
*
*          <type>PAR</type>
*
*          <SerialNumber>1122</SerialNumber>
*
*       </Sensor>
*
*       <Sensor id='volt 4'>
*
*          <type>ECO AFL/FL</type>
*
*          <SerialNumber>FLNTURT-2496</SerialNumber>
*
*       </Sensor>
*
*       <Sensor id='volt 5'>
*
*          <type>ECO-NTU</type>
*
*          <SerialNumber>FLNTURT-2496</SerialNumber>
*
*       </Sensor>
*
*       <Sensor id='serial'>
*
*          <type>not assigned</type>
*
*          <SerialNumber>not assigned</SerialNumber>
*
*       </Sensor>
*
*    </ExternalSensors>
*
* </HardwareData>
* <StatusData DeviceType='SBE19plus' SerialNumber='01907809'>
*
*    <DateTime>2022-07-14T13:04:48</DateTime>
*
*    <LoggingState>not logging</LoggingState>
*
*    <EventSummary numEvents='0'/>
*
*    <Power>
*
*       <vMain>12.3</vMain>
*
*       <vLith>8.6</vLith>
*
*       <iMain>63.0</iMain>
*
*       <iPump>44.7</iPump>
*
*       <iExt01>20.3</iExt01>
*
*       <iExt2345>37.5</iExt2345>
*
*    </Power>
*
*    <MemorySummary>
*
*       <Bytes>198904</Bytes>
*
*       <Samples>8648</Samples>
*
*       <SamplesFree>2852140</SamplesFree>
*
*       <SampleLength>23</SampleLength>
*
*       <Profiles>4</Profiles>
*
*    </MemorySummary>
*
* </StatusData>
* <ConfigurationData DeviceType='SBE19plus' SerialNumber='01907809'>
*
*    <ProfileMode>
*
*       <ScansToAverage>1</ScansToAverage>
*
*       <MinimumCondFreq>5</MinimumCondFreq>
*
*       <PumpDelay>40</PumpDelay>
*
*       <AutoRun>no</AutoRun>
*
*       <IgnoreSwitch>no</IgnoreSwitch>
*
*    </ProfileMode>
*
*    <Battery>
*
*       <Type>alkaline</Type>
*
*       <CutOff>7.5</CutOff>
*
*    </Battery>
*
*    <DataChannels>
*
*       <ExtVolt0>yes</ExtVolt0>
*
*       <ExtVolt1>yes</ExtVolt1>
*
*       <ExtVolt2>yes</ExtVolt2>
*
*       <ExtVolt3>yes</ExtVolt3>
*
*       <ExtVolt4>yes</ExtVolt4>
*
*       <ExtVolt5>yes</ExtVolt5>
*
*       <SBE38>no</SBE38>
*
*       <WETLABS>no</WETLABS>
*
*       <OPTODE>no</OPTODE>
*
*       <SBE63>no</SBE63>
*
*       <SeaFET>no</SeaFET>
*
*       <GTD>no</GTD>
*
*    </DataChannels>
*
*    <EchoCharacters>yes</EchoCharacters>
*
*    <OutputExecutedTag>yes</OutputExecutedTag>
*
*    <OutputFormat>raw HEX</OutputFormat>
*
* </ConfigurationData>
* <CalibrationCoefficients DeviceType='SBE19plus' SerialNumber='01907809'>
*
*    <Calibration format='TEMP1' id='Main Temperature'>
*
*       <SerialNum>01907809</SerialNum>
*
*       <CalDate>25-Sep-21</CalDate>
*
*       <TA0>1.232513e-03</TA0>
*
*       <TA1>2.763223e-04</TA1>
*
*       <TA2>-9.501887e-07</TA2>
*
*       <TA3>1.718014e-07</TA3>
*
*       <TOFFSET>0.000000e+00</TOFFSET>
*
*    </Calibration>
*
*    <Calibration format='WBCOND0' id='Main Conductivity'>
*
*       <SerialNum>01907809</SerialNum>
*
*       <CalDate>25-Sep-21</CalDate>
*
*       <G>-1.004440e+00</G>
*
*       <H>1.264604e-01</H>
*
*       <I>-7.854363e-05</I>
*
*       <J>2.210938e-05</J>
*
*       <CPCOR>-9.570000e-08</CPCOR>
*
*       <CTCOR>3.250000e-06</CTCOR>
*
*       <CSLOPE>1.000000e+00</CSLOPE>
*
*    </Calibration>
*
*    <Calibration format='STRAIN0' id='Main Pressure'>
*
*       <SerialNum>10586018</SerialNum>
*
*       <CalDate>10-Sep-21</CalDate>
*
*       <PA0>4.789196e-02</PA0>
*
*       <PA1>4.853655e-04</PA1>
*
*       <PA2>-3.689276e-12</PA2>
*
*       <PTCA0>5.254946e+05</PTCA0>
*
*       <PTCA1>1.325193e+01</PTCA1>
*
*       <PTCA2>-3.889275e-01</PTCA2>
*
*       <PTCB0>2.516687e+01</PTCB0>
*
*       <PTCB1>3.750000e-04</PTCB1>
*
*       <PTCB2>0.000000e+00</PTCB2>
*
*       <PTEMPA0>-5.401644e+01</PTEMPA0>
*
*       <PTEMPA1>5.390655e+01</PTEMPA1>
*
*       <PTEMPA2>-2.194112e-02</PTEMPA2>
*
*       <POFFSET>-1.280000e-01</POFFSET>
*
*       <PRANGE>1.600000e+02</PRANGE>
*
*    </Calibration>
*
*    <Calibration format='VOLT0' id='Volt 0'>
*
*       <OFFSET>-4.920000e-02</OFFSET>
*
*       <SLOPE>1.248122e+00</SLOPE>
*
*    </Calibration>
*
*    <Calibration format='VOLT0' id='Volt 1'>
*
*       <OFFSET>-4.784000e-02</OFFSET>
*
*       <SLOPE>1.248871e+00</SLOPE>
*
*    </Calibration>
*
*    <Calibration format='VOLT0' id='Volt 2'>
*
*       <OFFSET>-4.864632e-02</OFFSET>
*
*       <SLOPE>1.248714e+00</SLOPE>
*
*    </Calibration>
*
*    <Calibration format='VOLT0' id='Volt 3'>
*
*       <OFFSET>-4.743790e-02</OFFSET>
*
*       <SLOPE>1.248571e+00</SLOPE>
*
*    </Calibration>
*
*    <Calibration format='VOLT0' id='Volt 4'>
*
*       <OFFSET>-4.671263e-02</OFFSET>
*
*       <SLOPE>1.248951e+00</SLOPE>
*
*    </Calibration>
*
*    <Calibration format='VOLT0' id='Volt 5'>
*
*       <OFFSET>-4.871053e-02</OFFSET>
*
*       <SLOPE>1.249136e+00</SLOPE>
*
*    </Calibration>
*
*    <Calibration format='FREQ0' id='external frequency channel'>
*
*       <EXTFREQSF>1.000014e+00</EXTFREQSF>
*
*    </Calibration>
*
* </CalibrationCoefficients>
* <EventCounters DeviceType='SBE19plus' SerialNumber='01907809'>
*
*    <EventSummary numEvents='0'/>
*
* </EventCounters></InstrumentState>
* <Headers>
*
* cast   1 11 Jul 2022 07:50:16 samples 1 to 703, avg = 1, stop = mag switch
*
# nquan = 15
# nvalues = 703                         
# units = specified
# name 0 = depFM: Depth [fresh water, m]
# name 1 = dz/dtM: Descent Rate [m/s]
# name 2 = sbeox0Mg/L: Oxygen, SBE 43 [mg/l]
# name 3 = sbeox0PS: Oxygen, SBE 43 [% saturation]
# name 4 = specc: Specific Conductance [uS/cm]
# name 5 = c0uS/cm: Conductivity [uS/cm]
# name 6 = flECO-AFL: Fluorescence, WET Labs ECO-AFL/FL [mg/m^3]
# name 7 = ph: pH
# name 8 = orp: Oxidation Reduction Potential [mV]
# name 9 = par/sat/log: PAR/Logarithmic, Satlantic
# name 10 = turbWETntu0: Turbidity, WET Labs ECO [NTU]
# name 11 = prdM: Pressure, Strain Gauge [db]
# name 12 = prdE: Pressure, Strain Gauge [psi]
# name 13 = tv290C: Temperature [ITS-90, deg C]
# name 14 = flag:  0.000e+00
# span 0 =     -0.740,      2.145       
# span 1 =     -0.287,      0.203       
# span 2 =     0.0275,     7.2976       
# span 3 =      0.305,     88.307       
# span 4 =      0.725,    235.041       
# span 5 =   0.740794, 207.535385       
# span 6 =    -1.6297,   227.5524       
# span 7 =      6.033,      7.428       
# span 8 =  -163.9376,  1240.2295       
# span 9 = 1.0649e+01, 2.2782e+03       
# span 10 =    -7.9924,    37.4208      
# span 11 =     -0.726,      2.105      
# span 12 =     -1.053,      3.053      
# span 13 =    18.4505,    26.0712      
# span 14 = 0.0000e+00, 0.0000e+00      
# interval = seconds: 0.25
# start_time = Jul 11 2022 07:50:16 [Instrument's time stamp, header]
# bad_flag = -9.990e-29
# <Sensors count="9" >
#   <sensor Channel="1" >
#     <!-- Count, Temperature -->
#     <TemperatureSensor SensorID="58" >
#       <SerialNumber>7809</SerialNumber>
#       <CalibrationDate>25-Sep-21</CalibrationDate>
#       <A0>1.23251324e-003</A0>
#       <A1>2.76322262e-004</A1>
#       <A2>-9.50188734e-007</A2>
#       <A3>1.71801404e-007</A3>
#       <Slope>1.00000000</Slope>
#       <Offset>0.0000</Offset>
#     </TemperatureSensor>
#   </sensor>
#   <sensor Channel="2" >
#     <!-- Frequency 0, Conductivity -->
#     <ConductivitySensor SensorID="3" >
#       <SerialNumber>7809</SerialNumber>
#       <CalibrationDate>25-Sep-21</CalibrationDate>
#       <UseG_J>1</UseG_J>
#       <!-- Cell const and series R are applicable only for wide range sensors. -->
#       <SeriesR>0.0000</SeriesR>
#       <CellConst>2000.0000</CellConst>
#       <ConductivityType>0</ConductivityType>
#       <Coefficients equation="0" >
#         <A>0.00000000e+000</A>
#         <B>0.00000000e+000</B>
#         <C>0.00000000e+000</C>
#         <D>0.00000000e+000</D>
#         <M>0.0</M>
#         <CPcor>-9.57000000e-008</CPcor>
#       </Coefficients>
#       <Coefficients equation="1" >
#         <G>-1.00443970e+000</G>
#         <H>1.26460406e-001</H>
#         <I>-7.85436262e-005</I>
#         <J>2.21093811e-005</J>
#         <CPcor>-9.57000000e-008</CPcor>
#         <CTcor>3.2500e-006</CTcor>
#         <!-- WBOTC not applicable unless ConductivityType = 1. -->
#         <WBOTC>0.00000000e+000</WBOTC>
#       </Coefficients>
#       <Slope>1.00000000</Slope>
#       <Offset>0.00000</Offset>
#     </ConductivitySensor>
#   </sensor>
#   <sensor Channel="3" >
#     <!-- Count, Pressure, Strain Gauge -->
#     <PressureSensor SensorID="46" >
#       <SerialNumber>7809</SerialNumber>
#       <CalibrationDate>10-Sep-21</CalibrationDate>
#       <PA0>4.78919585e-002</PA0>
#       <PA1>4.85365526e-004</PA1>
#       <PA2>-3.68927597e-012</PA2>
#       <PTEMPA0>-5.40164371e+001</PTEMPA0>
#       <PTEMPA1>5.39065456e+001</PTEMPA1>
#       <PTEMPA2>-2.19411190e-002</PTEMPA2>
#       <PTCA0>5.25494622e+005</PTCA0>
#       <PTCA1>1.32519328e+001</PTCA1>
#       <PTCA2>-3.88927502e-001</PTCA2>
#       <PTCB0>2.51668750e+001</PTCB0>
#       <PTCB1>3.75000000e-004</PTCB1>
#       <PTCB2>0.00000000e+000</PTCB2>
#       <Offset>0.000000</Offset>
#     </PressureSensor>
#   </sensor>
#   <sensor Channel="4" >
#     <!-- A/D voltage 0, Oxygen, SBE 43 -->
#     <OxygenSensor SensorID="38" >
#       <SerialNumber>0434</SerialNumber>
#       <CalibrationDate>25-Sep-21</CalibrationDate>
#       <Use2007Equation>1</Use2007Equation>
#       <CalibrationCoefficients equation="0" >
#         <!-- Coefficients for Owens-Millard equation. -->
#         <Boc>0.0000</Boc>
#         <Soc>0.0000e+000</Soc>
#         <offset>0.0000</offset>
#         <Pcor>0.00e+000</Pcor>
#         <Tcor>0.0000</Tcor>
#         <Tau>0.0</Tau>
#       </CalibrationCoefficients>
#       <CalibrationCoefficients equation="1" >
#         <!-- Coefficients for Sea-Bird equation - SBE calibration in 2007 and later. -->
#         <Soc>4.7287e-001</Soc>
#         <offset>-0.5046</offset>
#         <A>-3.6094e-003</A>
#         <B> 1.1544e-004</B>
#         <C>-1.3802e-006</C>
#         <D0> 2.5826e+000</D0>
#         <D1> 1.92634e-004</D1>
#         <D2>-4.64803e-002</D2>
#         <E> 3.6000e-002</E>
#         <Tau20> 0.7700</Tau20>
#         <H1>-3.3000e-002</H1>
#         <H2> 5.0000e+003</H2>
#         <H3> 1.4500e+003</H3>
#       </CalibrationCoefficients>
#     </OxygenSensor>
#   </sensor>
#   <sensor Channel="5" >
#     <!-- A/D voltage 1, PAR/Logarithmic, Satlantic -->
#     <PARLog_SatlanticSensor SensorID="76" >
#       <SerialNumber>1122</SerialNumber>
#       <CalibrationDate>08-Sep-2021</CalibrationDate>
#       <a0>9.6751e-001</a0>
#       <a1>8.0992e-001</a1>
#       <Im>1.3589e+000</Im>
#       <Multiplier>1.0000e+000</Multiplier>
#     </PARLog_SatlanticSensor>
#   </sensor>
#   <sensor Channel="6" >
#     <!-- A/D voltage 2, pH -->
#     <pH_Sensor SensorID="43" >
#       <SerialNumber>0363</SerialNumber>
#       <CalibrationDate>16-Sep-21</CalibrationDate>
#       <Slope>4.5144</Slope>
#       <Offset>2.4957</Offset>
#     </pH_Sensor>
#   </sensor>
#   <sensor Channel="7" >
#     <!-- A/D voltage 3, Oxidation Reduction Potential -->
#     <OxidationReductionPotentialSensor SensorID="41" >
#       <SerialNumber>0363</SerialNumber>
#       <CalibrationDate>16-Sep-21</CalibrationDate>
#       <B>2.499480</B>
#       <M>-0.496195</M>
#       <Offset>0.0</Offset>
#     </OxidationReductionPotentialSensor>
#   </sensor>
#   <sensor Channel="8" >
#     <!-- A/D voltage 4, Fluorometer, WET Labs ECO-AFL/FL -->
#     <FluoroWetlabECO_AFL_FL_Sensor SensorID="20" >
#       <SerialNumber>FLNTURT-2496</SerialNumber>
#       <CalibrationDate>02-Sep-2021</CalibrationDate>
#       <ScaleFactor>4.80000000e+001</ScaleFactor>
#       <!-- Dark output -->
#       <Vblank>0.0550</Vblank>
#     </FluoroWetlabECO_AFL_FL_Sensor>
#   </sensor>
#   <sensor Channel="9" >
#     <!-- A/D voltage 5, Turbidity Meter, WET Labs, ECO-NTU -->
#     <TurbidityMeter SensorID="67" >
#       <SerialNumber>FLNTURT-2496</SerialNumber>
#       <CalibrationDate>02-Sep-2021</CalibrationDate>
#       <ScaleFactor>197.000000</ScaleFactor>
#       <!-- Dark output -->
#       <DarkVoltage>0.070000</DarkVoltage>
#     </TurbidityMeter>
#   </sensor>
# </Sensors>
# datcnv_date = Jul 14 2022 16:13:07, 7.26.7.129 [datcnv_vars = 14]
# datcnv_in = C:\R\Reservoirs\Data\DataNotYetUploadedToEDI\Raw_CTD\RawDownloads\071122_bvr40_S7809001.hex C:\R\Reservoirs\Data\DataNotYetUploadedToEDI\Raw_CTD\RawDownloads\SBE19plusV2_7809_Old_CTD.xmlcon
# datcnv_skipover = 0
# datcnv_ox_hysteresis_correction = yes
# datcnv_ox_tau_correction = yes
# filter_date = Jul 14 2022 16:13:48, 7.26.7.129
# filter_in = C:\R\Reservoirs\Data\DataNotYetUploadedToEDI\Raw_CTD\RawDownloads\071122_bvr40_S7809001.cnv
# filter_low_pass_tc_A = 0.030
# filter_low_pass_tc_B = 0.150
# filter_low_pass_A_vars = sbeox0Mg/L prdM prdE tv290C
# filter_low_pass_B_vars = depFM dz/dtM sbeox0PS specc c0uS/cm flECO-AFL ph orp par/sat/log turbWETntu0
# alignctd_date = Jul 14 2022 16:14:19, 7.26.7.129
# alignctd_in = C:\R\Reservoirs\Data\DataNotYetUploadedToEDI\Raw_CTD\RawDownloads\071122_bvr40_S7809001.cnv
# alignctd_adv = dz/dtM 1.000, sbeox0PS 1.000, specc 1.000, c0uS/cm 1.000, flECO-AFL 1.000, ph 1.000, orp 1.000, turbWETntu0 1.000                                                                                                   
# file_type = ascii
*END*
     -0.739 8.4212e-09     6.9647     85.934      0.725   0.740794    -0.0490      6.033  1240.2295 6.8266e+02     0.7463     -0.725     -1.051    26.0617 0.0000e+00
     -0.739 9.2633e-08     6.9623     85.944      0.735   0.751076    -0.0752      6.078  1240.2295 7.1229e+02     0.7493     -0.725     -1.051    26.0625 0.0000e+00
     -0.739      0.000     6.9632     85.957      0.737   0.753349    -0.2479      6.109  1240.2293 7.9678e+02     1.2090     -0.724     -1.050    26.0630 0.0000e+00
     -0.739      0.000     6.9641     85.958      0.752   0.768274    -0.5648      6.130  1240.2277 9.4885e+02     2.0690     -0.725     -1.051    26.0642 0.0000e+00
     -0.740      0.000     6.9628     85.958      0.788   0.804939    -0.7518      6.144  1240.2094 1.0956e+03     2.5055     -0.726     -1.052    26.0649 0.0000e+00
     -0.740      0.001     6.9642     85.975      0.925   0.943462    -0.7773      6.154  1240.0087 1.1424e+03     2.5581     -0.726     -1.053    26.0660 0.0000e+00
     -0.739      0.005     6.9657     85.995      2.153   2.189934    -0.7895      6.163  1237.8009 1.1126e+03     2.6030     -0.725     -1.052    26.0666 0.0000e+00
     -0.739      0.014     6.9652     85.995      7.283   7.392979    -1.0076      6.214  1213.5149 1.1442e+03     2.5698     -0.724     -1.051    26.0685 0.0000e+00
     -0.737      0.035     6.9643     85.984     17.761  18.007694    -1.4179      6.399   946.3684 1.2526e+03     2.4640     -0.724     -1.050    26.0680 0.0000e+00
     -0.734      0.072     6.9655     85.984     27.870  28.228808    -1.6297      6.691   457.3802 1.3206e+03     2.4167     -0.720     -1.043    26.0712 0.0000e+00
     -0.726      0.118     6.9781     86.003     31.568  31.938885    -1.6037      6.946   192.3602 1.3578e+03     2.5787     -0.717     -1.040    25.9989 0.0000e+00
     -0.701      0.162     6.9976     86.061     31.428  31.749508    -1.2212      7.105   171.2658 1.3934e+03     4.2862     -0.700     -1.016    25.8357 0.0000e+00
     -0.644      0.192     7.0113     86.178     31.135  31.391291    -0.5329      7.195   172.9911 1.1942e+03     7.3483     -0.643     -0.932    25.7178 0.0000e+00
     -0.560      0.203     7.0196     86.332     30.968  31.157870    -0.1650      7.246   174.7609 7.8573e+02     8.9956     -0.550     -0.798    25.6475 0.0000e+00
     -0.478      0.196     7.0287     86.488     30.881  31.019213    -0.1016      7.287   171.7568 7.1393e+02     9.2078     -0.454     -0.659    25.5870 0.0000e+00
     -0.424      0.172     7.0414     86.641     30.876  30.982631     0.2581      7.333   164.9754 1.0385e+03     9.7432     -0.405     -0.587    25.5155 0.0000e+00
     -0.398      0.139     7.0660     86.767     30.943  31.032495     0.8964      7.378   159.6204 1.2865e+03    10.6178     -0.386     -0.561    25.4061 0.0000e+00
     -0.383      0.110     7.0958     86.896     31.098  31.178323     1.2324      7.407   158.7198 1.4100e+03    11.0384     -0.375     -0.543    25.2904 0.0000e+00
     -0.372      0.094     7.1180     87.094     31.275  31.351102     1.2659      7.422   159.8505 1.6524e+03    11.0710     -0.365     -0.531    25.2067 0.0000e+00
     -0.357      0.092     7.1387     87.339     31.337  31.409851     1.3676      7.428   157.2027 1.9455e+03    11.2169     -0.354     -0.515    25.1597 0.0000e+00
     -0.331      0.094     7.1520     87.589     31.312  31.381476     1.5379      7.421   153.8939 1.9845e+03    11.4355     -0.331     -0.480    25.1341 0.0000e+00
     -0.292      0.094     7.1599     87.842     31.321  31.388388     1.6187      7.405   158.8199 1.6317e+03    11.5283     -0.284     -0.413    25.1219 0.0000e+00
     -0.257      0.087     7.1795     88.067     31.361  31.430033     1.6208      7.390   165.8265 1.1325e+03    11.5190     -0.247     -0.358    25.1143 0.0000e+00
     -0.234      0.072     7.2023     88.222     31.368  31.441227     1.6550      7.379   168.6613 7.7001e+02    11.4933     -0.227     -0.328    25.1087 0.0000e+00
     -0.222      0.052     7.2224     88.302     31.319  31.396956     1.7166      7.370   169.4337 5.4925e+02    11.4225     -0.214     -0.311    25.1030 0.0000e+00
     -0.218      0.029     7.2452     88.307     31.198  31.275134     1.7414      7.366   169.5731 4.5274e+02    11.3471     -0.215     -0.312    25.0989 0.0000e+00
     -0.215      0.011     7.2654     88.255     31.038  31.109421     1.7294      7.366   170.4321 4.4841e+02    11.2990     -0.211     -0.306    25.1015 0.0000e+00
     -0.213      0.001     7.2761     88.243     30.915  30.978226     1.7217      7.362   171.7325 4.7169e+02    11.2843     -0.205     -0.298    25.1105 0.0000e+00
     -0.218     -0.003     7.2821     88.257     30.839  30.893371     1.7149      7.354   173.0783 5.1113e+02    11.3060     -0.213     -0.309    25.1201 0.0000e+00
