* Sea-Bird SBE19plus  Data File:
* FileName = C:\R\Reservoirs\Data\DataNotYetUploadedToEDI\Raw_CTD\RawDownloads\071221_fcr50_0002.hex
* Software version 2.8.0.119
* Temperature SN = 7809
* Conductivity SN = 7809
* System UpLoad Time = Jul 12 2021 19:05:36
* <ApplicationData>
* <Seaterm232>
* <SoftwareVersion>2.8.0.119</SoftwareVersion>
* <BuildDate>07-Nov-2018</BuildDate>
* </Seaterm232>
* </ApplicationData>
* <InstrumentState>
* <HardwareData DeviceType='SBE19plus' SerialNumber='01907809'>
*
*    <Manufacturer>Sea-Bird Electronics, Inc.</Manufacturer>
*
*    <FirmwareVersion>3.1.8</FirmwareVersion>
*
*    <FirmwareDate>Mar  9 2016 16:22:29</FirmwareDate>
*
*    <CommandSetVersion>1.4</CommandSetVersion>
*
*    <PCBAssembly PCBSerialNum='120721' AssemblyNum='41054J'/>
*
*    <PCBAssembly PCBSerialNum='120715' AssemblyNum='41967A'/>
*
*    <PCBAssembly PCBSerialNum='116699' AssemblyNum='41606'/>
*
*    <PCBAssembly PCBSerialNum='120719' AssemblyNum='41059D'/>
*
*    <MfgDate>28-Apr-2017</MfgDate>
*
*    <InternalSensors>
*
*       <Sensor id='Main Temperature'>
*
*          <type>temperature0</type>
*
*          <SerialNumber>01907809</SerialNumber>
*
*       </Sensor>
*
*       <Sensor id='Main Conductivity'>
*
*          <type>conductivity-0</type>
*
*          <SerialNumber>01907809</SerialNumber>
*
*       </Sensor>
*
*       <Sensor id='Main Pressure'>
*
*          <type>strain-0</type>
*
*          <SerialNumber>10586018</SerialNumber>
*
*       </Sensor>
*
*    </InternalSensors>
*
*    <ExternalSensors>
*
*       <Sensor id='volt 0'>
*
*          <type>pH</type>
*
*          <SerialNumber>27-0363</SerialNumber>
*
*       </Sensor>
*
*       <Sensor id='volt 1'>
*
*          <type>ORP</type>
*
*          <SerialNumber>27-0363</SerialNumber>
*
*       </Sensor>
*
*       <Sensor id='volt 2'>
*
*          <type>OXY</type>
*
*          <SerialNumber>43-0434</SerialNumber>
*
*       </Sensor>
*
*       <Sensor id='volt 3'>
*
*          <type>PAR</type>
*
*          <SerialNumber>1122</SerialNumber>
*
*       </Sensor>
*
*       <Sensor id='volt 4'>
*
*          <type>ECO AFL/FL</type>
*
*          <SerialNumber>FLNTURT-2496</SerialNumber>
*
*       </Sensor>
*
*       <Sensor id='volt 5'>
*
*          <type>ECO-NTU</type>
*
*          <SerialNumber>FLNTURT-2496</SerialNumber>
*
*       </Sensor>
*
*       <Sensor id='serial'>
*
*          <type>not assigned</type>
*
*          <SerialNumber>not assigned</SerialNumber>
*
*       </Sensor>
*
*    </ExternalSensors>
*
* </HardwareData>
* <StatusData DeviceType='SBE19plus' SerialNumber='01907809'>
*
*    <DateTime>2021-07-12T06:04:40</DateTime>
*
*    <LoggingState>not logging</LoggingState>
*
*    <EventSummary numEvents='0'/>
*
*    <Power>
*
*       <vMain>12.3</vMain>
*
*       <vLith>8.7</vLith>
*
*       <iMain>63.1</iMain>
*
*       <iPump>49.0</iPump>
*
*       <iExt01>20.2</iExt01>
*
*       <iExt2345>37.8</iExt2345>
*
*    </Power>
*
*    <MemorySummary>
*
*       <Bytes>35903</Bytes>
*
*       <Samples>1561</Samples>
*
*       <SamplesFree>2859227</SamplesFree>
*
*       <SampleLength>23</SampleLength>
*
*       <Profiles>2</Profiles>
*
*    </MemorySummary>
*
* </StatusData>
* <ConfigurationData DeviceType='SBE19plus' SerialNumber='01907809'>
*
*    <ProfileMode>
*
*       <ScansToAverage>1</ScansToAverage>
*
*       <MinimumCondFreq>5</MinimumCondFreq>
*
*       <PumpDelay>30</PumpDelay>
*
*       <AutoRun>no</AutoRun>
*
*       <IgnoreSwitch>no</IgnoreSwitch>
*
*    </ProfileMode>
*
*    <Battery>
*
*       <Type>alkaline</Type>
*
*       <CutOff>7.5</CutOff>
*
*    </Battery>
*
*    <DataChannels>
*
*       <ExtVolt0>yes</ExtVolt0>
*
*       <ExtVolt1>yes</ExtVolt1>
*
*       <ExtVolt2>yes</ExtVolt2>
*
*       <ExtVolt3>yes</ExtVolt3>
*
*       <ExtVolt4>yes</ExtVolt4>
*
*       <ExtVolt5>yes</ExtVolt5>
*
*       <SBE38>no</SBE38>
*
*       <WETLABS>no</WETLABS>
*
*       <OPTODE>no</OPTODE>
*
*       <SBE63>no</SBE63>
*
*       <SeaFET>no</SeaFET>
*
*       <GTD>no</GTD>
*
*    </DataChannels>
*
*    <EchoCharacters>yes</EchoCharacters>
*
*    <OutputExecutedTag>yes</OutputExecutedTag>
*
*    <OutputFormat>raw HEX</OutputFormat>
*
* </ConfigurationData>
* <CalibrationCoefficients DeviceType='SBE19plus' SerialNumber='01907809'>
*
*    <Calibration format='TEMP1' id='Main Temperature'>
*
*       <SerialNum>01907809</SerialNum>
*
*       <CalDate>17-Feb-20</CalDate>
*
*       <TA0>1.231828e-03</TA0>
*
*       <TA1>2.765479e-04</TA1>
*
*       <TA2>-9.738161e-07</TA2>
*
*       <TA3>1.725813e-07</TA3>
*
*       <TOFFSET>0.000000e+00</TOFFSET>
*
*    </Calibration>
*
*    <Calibration format='WBCOND0' id='Main Conductivity'>
*
*       <SerialNum>01907809</SerialNum>
*
*       <CalDate>17-Feb-20</CalDate>
*
*       <G>-1.004905e+00</G>
*
*       <H>1.264249e-01</H>
*
*       <I>-3.338479e-05</I>
*
*       <J>1.822406e-05</J>
*
*       <CPCOR>-9.570000e-08</CPCOR>
*
*       <CTCOR>3.250000e-06</CTCOR>
*
*       <CSLOPE>1.000000e+00</CSLOPE>
*
*    </Calibration>
*
*    <Calibration format='STRAIN0' id='Main Pressure'>
*
*       <SerialNum>10586018</SerialNum>
*
*       <CalDate>30-Jan-20</CalDate>
*
*       <PA0>-8.839367e-03</PA0>
*
*       <PA1>4.852353e-04</PA1>
*
*       <PA2>-3.463847e-12</PA2>
*
*       <PTCA0>5.254672e+05</PTCA0>
*
*       <PTCA1>5.138564e+00</PTCA1>
*
*       <PTCA2>-2.726934e-01</PTCA2>
*
*       <PTCB0>2.516687e+01</PTCB0>
*
*       <PTCB1>3.750000e-04</PTCB1>
*
*       <PTCB2>0.000000e+00</PTCB2>
*
*       <PTEMPA0>-5.396332e+01</PTEMPA0>
*
*       <PTEMPA1>5.390761e+01</PTEMPA1>
*
*       <PTEMPA2>-2.231787e-02</PTEMPA2>
*
*       <POFFSET>6.460000e-01</POFFSET>
*
*       <PRANGE>1.600000e+02</PRANGE>
*
*    </Calibration>
*
*    <Calibration format='VOLT0' id='Volt 0'>
*
*       <OFFSET>-4.920000e-02</OFFSET>
*
*       <SLOPE>1.248122e+00</SLOPE>
*
*    </Calibration>
*
*    <Calibration format='VOLT0' id='Volt 1'>
*
*       <OFFSET>-4.784000e-02</OFFSET>
*
*       <SLOPE>1.248871e+00</SLOPE>
*
*    </Calibration>
*
*    <Calibration format='VOLT0' id='Volt 2'>
*
*       <OFFSET>-4.864632e-02</OFFSET>
*
*       <SLOPE>1.248714e+00</SLOPE>
*
*    </Calibration>
*
*    <Calibration format='VOLT0' id='Volt 3'>
*
*       <OFFSET>-4.743790e-02</OFFSET>
*
*       <SLOPE>1.248571e+00</SLOPE>
*
*    </Calibration>
*
*    <Calibration format='VOLT0' id='Volt 4'>
*
*       <OFFSET>-4.671263e-02</OFFSET>
*
*       <SLOPE>1.248951e+00</SLOPE>
*
*    </Calibration>
*
*    <Calibration format='VOLT0' id='Volt 5'>
*
*       <OFFSET>-4.871053e-02</OFFSET>
*
*       <SLOPE>1.249136e+00</SLOPE>
*
*    </Calibration>
*
*    <Calibration format='FREQ0' id='external frequency channel'>
*
*       <EXTFREQSF>1.000014e+00</EXTFREQSF>
*
*    </Calibration>
*
* </CalibrationCoefficients>
* <EventCounters DeviceType='SBE19plus' SerialNumber='01907809'>
*
*    <EventSummary numEvents='0'/>
*
* </EventCounters></InstrumentState>
* <Headers>
*
* cast   2 12 Jul 2021 02:13:05 samples 678 to 1561, avg = 1, stop = mag switch
*
# nquan = 16
# nvalues = 884                         
# units = specified
# name 0 = depFM: Depth [fresh water, m]
# name 1 = dz/dtM: Descent Rate [m/s]
# name 2 = orp: Oxidation Reduction Potential [mV]
# name 3 = sbeox0Mg/L: Oxygen, SBE 43 [mg/l]
# name 4 = sbeox0PS: Oxygen, SBE 43 [% saturation]
# name 5 = par/sat/log: PAR/Logarithmic, Satlantic
# name 6 = ph: pH
# name 7 = specc: Specific Conductance [uS/cm]
# name 8 = c0uS/cm: Conductivity [uS/cm]
# name 9 = flECO-AFL: Fluorescence, WET Labs ECO-AFL/FL [mg/m^3]
# name 10 = turbWETntu0: Turbidity, WET Labs ECO [NTU]
# name 11 = tv290C: Temperature [ITS-90, deg C]
# name 12 = density00: Density [density, kg/m^3]
# name 13 = prdE: Pressure, Strain Gauge [psi]
# name 14 = prdM: Pressure, Strain Gauge [db]
# name 15 = flag:  0.000e+00
# span 0 =     -0.681,     10.278       
# span 1 =     -0.450,      0.156       
# span 2 = -1240.7455,   322.4021       
# span 3 =     0.5547,     9.2989       
# span 4 =      5.079,    118.076       
# span 5 = 1.2328e-01, 6.9687e+02       
# span 6 =     15.187,     15.866       
# span 7 =      0.700,    117.342       
# span 8 =   0.801512,  79.562217       
# span 9 =    -0.9356,    27.4289       
# span 10 =    -0.4345,     6.9447      
# span 11 =     8.8888,    32.2912      
# span 12 =   994.9422,   999.8828      
# span 13 =     -0.970,     14.620      
# span 14 =     -0.669,     10.080      
# span 15 = 0.0000e+00, 0.0000e+00      
# interval = seconds: 0.25
# start_time = Jul 12 2021 02:13:05 [Instrument's time stamp, header]
# bad_flag = -9.990e-29
# <Sensors count="9" >
#   <sensor Channel="1" >
#     <!-- Count, Temperature -->
#     <TemperatureSensor SensorID="58" >
#       <SerialNumber>7809</SerialNumber>
#       <CalibrationDate>17-Feb-20</CalibrationDate>
#       <A0>1.23182765e-003</A0>
#       <A1>2.76547921e-004</A1>
#       <A2>-9.73816136e-007</A2>
#       <A3>1.72581310e-007</A3>
#       <Slope>1.00000000</Slope>
#       <Offset>0.0000</Offset>
#     </TemperatureSensor>
#   </sensor>
#   <sensor Channel="2" >
#     <!-- Frequency 0, Conductivity -->
#     <ConductivitySensor SensorID="3" >
#       <SerialNumber>7809</SerialNumber>
#       <CalibrationDate>17-Feb-20</CalibrationDate>
#       <UseG_J>1</UseG_J>
#       <!-- Cell const and series R are applicable only for wide range sensors. -->
#       <SeriesR>0.0000</SeriesR>
#       <CellConst>2000.0000</CellConst>
#       <ConductivityType>0</ConductivityType>
#       <Coefficients equation="0" >
#         <A>0.00000000e+000</A>
#         <B>0.00000000e+000</B>
#         <C>0.00000000e+000</C>
#         <D>0.00000000e+000</D>
#         <M>0.0</M>
#         <CPcor>-9.57000000e-008</CPcor>
#       </Coefficients>
#       <Coefficients equation="1" >
#         <G>-1.00490463e+000</G>
#         <H>1.26424869e-001</H>
#         <I>-3.33847890e-005</I>
#         <J>1.82240562e-005</J>
#         <CPcor>-9.57000000e-008</CPcor>
#         <CTcor>3.2500e-006</CTcor>
#         <!-- WBOTC not applicable unless ConductivityType = 1. -->
#         <WBOTC>0.00000000e+000</WBOTC>
#       </Coefficients>
#       <Slope>1.00000000</Slope>
#       <Offset>0.00000</Offset>
#     </ConductivitySensor>
#   </sensor>
#   <sensor Channel="3" >
#     <!-- Count, Pressure, Strain Gauge -->
#     <PressureSensor SensorID="46" >
#       <SerialNumber>7809</SerialNumber>
#       <CalibrationDate>30-Jan-20</CalibrationDate>
#       <PA0>-8.83936748e-003</PA0>
#       <PA1>4.85235293e-004</PA1>
#       <PA2>-3.46384727e-012</PA2>
#       <PTEMPA0>-5.39633232e+001</PTEMPA0>
#       <PTEMPA1>5.39076104e+001</PTEMPA1>
#       <PTEMPA2>-2.23178720e-002</PTEMPA2>
#       <PTCA0>5.25467230e+005</PTCA0>
#       <PTCA1>5.13856356e+000</PTCA1>
#       <PTCA2>-2.72693365e-001</PTCA2>
#       <PTCB0>2.51668750e+001</PTCB0>
#       <PTCB1>3.75000000e-004</PTCB1>
#       <PTCB2>0.00000000e+000</PTCB2>
#       <Offset>0.000000</Offset>
#     </PressureSensor>
#   </sensor>
#   <sensor Channel="4" >
#     <!-- A/D voltage 0, Oxygen, SBE 43 -->
#     <OxygenSensor SensorID="38" >
#       <SerialNumber>0434</SerialNumber>
#       <CalibrationDate>17-Mar-20</CalibrationDate>
#       <Use2007Equation>1</Use2007Equation>
#       <CalibrationCoefficients equation="0" >
#         <!-- Coefficients for Owens-Millard equation. -->
#         <Boc>0.0000</Boc>
#         <Soc>0.0000e+000</Soc>
#         <offset>0.0000</offset>
#         <Pcor>0.00e+000</Pcor>
#         <Tcor>0.0000</Tcor>
#         <Tau>0.0</Tau>
#       </CalibrationCoefficients>
#       <CalibrationCoefficients equation="1" >
#         <!-- Coefficients for Sea-Bird equation - SBE calibration in 2007 and later. -->
#         <Soc>4.3425e-001</Soc>
#         <offset>-0.6091</offset>
#         <A>-4.2837e-003</A>
#         <B> 1.6743e-004</B>
#         <C>-2.2978e-006</C>
#         <D0> 2.5826e+000</D0>
#         <D1> 1.92634e-004</D1>
#         <D2>-4.64803e-002</D2>
#         <E> 3.6000e-002</E>
#         <Tau20> 1.3000</Tau20>
#         <H1>-3.3000e-002</H1>
#         <H2> 5.0000e+003</H2>
#         <H3> 1.4500e+003</H3>
#       </CalibrationCoefficients>
#     </OxygenSensor>
#   </sensor>
#   <sensor Channel="5" >
#     <!-- A/D voltage 1, PAR/Logarithmic, Satlantic -->
#     <PARLog_SatlanticSensor SensorID="76" >
#       <SerialNumber>1122</SerialNumber>
#       <CalibrationDate>08-May-2019</CalibrationDate>
#       <a0>9.7456e-001</a0>
#       <a1>8.1640e-001</a1>
#       <Im>1.3589e+000</Im>
#       <Multiplier>1.0000e+000</Multiplier>
#     </PARLog_SatlanticSensor>
#   </sensor>
#   <sensor Channel="6" >
#     <!-- A/D voltage 2, pH -->
#     <pH_Sensor SensorID="43" >
#       <SerialNumber>0363</SerialNumber>
#       <CalibrationDate>24-Feb-20</CalibrationDate>
#       <Slope>4.6470</Slope>
#       <Offset>2.5043</Offset>
#     </pH_Sensor>
#   </sensor>
#   <sensor Channel="7" >
#     <!-- A/D voltage 3, Oxidation Reduction Potential -->
#     <OxidationReductionPotentialSensor SensorID="41" >
#       <SerialNumber>0363</SerialNumber>
#       <CalibrationDate>24-Feb-20</CalibrationDate>
#       <B>2.499480</B>
#       <M>-0.496195</M>
#       <Offset>0.0</Offset>
#     </OxidationReductionPotentialSensor>
#   </sensor>
#   <sensor Channel="8" >
#     <!-- A/D voltage 4, Fluorometer, WET Labs ECO-AFL/FL -->
#     <FluoroWetlabECO_AFL_FL_Sensor SensorID="20" >
#       <SerialNumber>FLNTURT-2496</SerialNumber>
#       <CalibrationDate>31-Jan-2020</CalibrationDate>
#       <ScaleFactor>5.50000000e+001</ScaleFactor>
#       <!-- Dark output -->
#       <Vblank>0.0700</Vblank>
#     </FluoroWetlabECO_AFL_FL_Sensor>
#   </sensor>
#   <sensor Channel="9" >
#     <!-- A/D voltage 5, Turbidity Meter, WET Labs, ECO-NTU -->
#     <TurbidityMeter SensorID="67" >
#       <SerialNumber>FLNTURT-2496</SerialNumber>
#       <CalibrationDate>31-Jan-20</CalibrationDate>
#       <ScaleFactor>198.000000</ScaleFactor>
#       <!-- Dark output -->
#       <DarkVoltage>0.070000</DarkVoltage>
#     </TurbidityMeter>
#   </sensor>
# </Sensors>
# datcnv_date = Jul 12 2021 19:07:42, 7.26.7.129 [datcnv_vars = 15]
# datcnv_in = C:\R\Reservoirs\Data\DataNotYetUploadedToEDI\Raw_CTD\RawDownloads\071221_bvr50 (2).hex C:\DATA\SBE19plusV2_7809.xmlcon
# datcnv_skipover = 0
# datcnv_ox_hysteresis_correction = yes
# datcnv_ox_tau_correction = yes
# filter_date = Jul 12 2021 19:08:28, 7.26.7.129
# filter_in = C:\R\Reservoirs\Data\DataNotYetUploadedToEDI\Raw_CTD\RawDownloads\071221_bvr50 (2).cnv
# filter_low_pass_tc_A = 0.030
# filter_low_pass_tc_B = 0.150
# filter_low_pass_A_vars = sbeox0Mg/L tv290C density00 prdE prdM
# filter_low_pass_B_vars = depFM dz/dtM orp sbeox0PS par/sat/log ph specc c0uS/cm flECO-AFL turbWETntu0
# alignctd_date = Jul 12 2021 19:08:46, 7.26.7.129
# alignctd_in = C:\R\Reservoirs\Data\DataNotYetUploadedToEDI\Raw_CTD\RawDownloads\071221_bvr50 (2).cnv
# alignctd_adv = dz/dtM 1.000, orp 1.000, sbeox0PS 1.000, ph 1.000, specc 1.000, c0uS/cm 1.000, flECO-AFL 1.000, turbWETntu0 1.000                                                                                                   
# file_type = ascii
*END*
     -0.680 -4.744e-19  -909.3707     7.4928    103.058 6.8630e+02     15.221      0.749   0.858398    -0.8995     0.2152    32.2912   994.9422     -0.968     -0.667 0.0000e+00
     -0.680 -4.313e-20  -950.2362     7.4916    103.061 6.7452e+02     15.221      0.747   0.855999    -0.9045     0.2029    32.2906   994.9424     -0.968     -0.667 0.0000e+00
     -0.681 -3.921e-21  -989.8765     7.4936    103.088 6.5645e+02     15.221      0.735   0.842187    -0.8935     0.1797    32.2901   994.9425     -0.968     -0.667 0.0000e+00
     -0.681 -3.564e-22 -1026.0888     7.4926    103.126 6.3821e+02     15.222      0.713   0.818095    -0.8897     0.0718    32.2897   994.9426     -0.968     -0.667 0.0000e+00
     -0.681 -3.195e-23 -1062.9339     7.4906    103.132 6.2586e+02     15.224      0.713   0.818084    -0.8967    -0.0367    32.2895   994.9427     -0.969     -0.668 0.0000e+00
     -0.681 2.0382e-24 -1125.7976     7.4914    103.104 6.2213e+02     15.209      0.735   0.842052    -0.9020    -0.0335    32.2891   994.9429     -0.968     -0.667 0.0000e+00
     -0.681 5.4558e-23 -1201.1018     7.4928    103.080 6.2164e+02     15.187      0.746   0.854502    -0.9063    -0.0270    32.2882   994.9431     -0.968     -0.667 0.0000e+00
     -0.681 6.0306e-22 -1234.7840     7.4981    103.080 6.1564e+02     15.199      0.735   0.841928    -0.9102    -0.0617    32.2875   994.9433     -0.968     -0.667 0.0000e+00
     -0.681 6.6339e-21 -1235.6080     7.4982    103.094 6.0257e+02     15.232      0.712   0.816714    -0.9108    -0.0758    32.2873   994.9434     -0.968     -0.667 0.0000e+00
     -0.681 7.2973e-20 -1237.2205     7.4949    103.090 5.8526e+02     15.244      0.700   0.803017    -0.9042    -0.0595    32.2869   994.9436     -0.968     -0.667 0.0000e+00
     -0.681 8.0270e-19 -1237.7623     7.4925    103.058 5.6929e+02     15.244      0.700   0.803007    -0.8977    -0.0016    32.2865   994.9437     -0.969     -0.668 0.0000e+00
     -0.681 8.8297e-18 -1236.5656     7.4932    103.031 5.6114e+02     15.238      0.712   0.816600    -0.8987     0.0057    32.2860   994.9439     -0.968     -0.667 0.0000e+00
     -0.681 9.7127e-17 -1238.4961     7.4950    103.037 5.5293e+02     15.220      0.734   0.840670    -0.8970    -0.0389    32.2855   994.9441     -0.969     -0.668 0.0000e+00
     -0.681 1.0684e-15 -1240.5410     7.4954    103.067 5.3413e+02     15.219      0.734   0.840669    -0.8862    -0.0263    32.2850   994.9442     -0.969     -0.668 0.0000e+00
     -0.681 1.1752e-14 -1240.7269     7.4921    103.114 5.2088e+02     15.245      0.713   0.816588    -0.8828    -0.0483    32.2844   994.9444     -0.968     -0.667 0.0000e+00
     -0.681 1.2928e-13 -1240.7438     7.4886    103.128 5.2948e+02     15.263      0.701   0.802881    -0.8940    -0.1670    32.2841   994.9445     -0.969     -0.668 0.0000e+00
     -0.681 1.4220e-12 -1240.7454     7.4909    103.098 5.4672e+02     15.259      0.700   0.801636    -0.8986    -0.2600    32.2835   994.9447     -0.969     -0.668 0.0000e+00
     -0.681 1.5642e-11 -1240.7455     7.4916    103.084 5.5442e+02     15.251      0.700   0.801522    -0.8906    -0.2802    32.2828   994.9449     -0.969     -0.668 0.0000e+00
     -0.681 1.7207e-10 -1240.7455     7.4974    103.088 5.4827e+02     15.249      0.700   0.801512    -0.8916    -0.3088    32.2825   994.9450     -0.970     -0.669 0.0000e+00
     -0.681 1.8927e-09 -1240.7455     7.5001    103.093 5.2926e+02     15.251      0.700   0.801513    -0.8921    -0.3305    32.2822   994.9451     -0.969     -0.668 0.0000e+00
     -0.681 2.0820e-08 -1240.7455     7.4934    103.092 4.9739e+02     15.251      0.700   0.801533    -0.8776    -0.3022    32.2815   994.9453     -0.969     -0.668 0.0000e+00
     -0.681 2.2902e-07 -1240.7455     7.4943    103.084 4.5786e+02     15.247      0.700   0.801754    -0.8783    -0.3449    32.2812   994.9454     -0.969     -0.668 0.0000e+00
     -0.681      0.000 -1240.7455     7.4951    103.094 4.1608e+02     15.243      0.702   0.804185    -0.8906    -0.4345    32.2801   994.9457     -0.969     -0.668 0.0000e+00
     -0.681      0.000 -1240.7455     7.4949    103.094 3.7636e+02     15.240      0.726   0.830926    -0.8935    -0.4249    32.2798   994.9458     -0.968     -0.667 0.0000e+00
     -0.681      0.000 -1240.7455     7.4965    103.065 3.5111e+02     15.236      0.873   0.998388    -0.8940    -0.3305    32.2784   994.9463     -0.969     -0.668 0.0000e+00
     -0.681      0.003 -1240.7455     7.4931    103.039 3.5370e+02     15.237      1.820   2.068816    -0.8869    -0.2892    32.2793   994.9461     -0.968     -0.667 0.0000e+00
     -0.681      0.012 -1240.7455     7.4963    103.073 3.8330e+02     15.238      5.719   6.424853    -0.8931    -0.3718    32.2766   994.9468     -0.969     -0.668 0.0000e+00
