* Sea-Bird SBE19plus  Data File:
* FileName = C:\DATA\071519_fcr_0006.hex
* Software version 2.8.0.119 SB_Terminal.dll
* Temperature SN = 7809
* Conductivity SN = 7809
* System UpLoad Time = Jul 15 2019 16:38:58
* <ApplicationData>
* <Seaterm232>
* <SoftwareVersion>2.8.0.119</SoftwareVersion>
* <BuildDate>07-Nov-2018</BuildDate>
* </Seaterm232>
* </ApplicationData>
* cast   6 15 Jul 2019 11:23:45 samples 3005 to 3753, avg = 1, stop = mag switch
# nquan = 16
# nvalues = 632                         
# units = specified
# name 0 = depFM: Depth [fresh water, m]
# name 1 = dz/dtM: Descent Rate [m/s]
# name 2 = sbeox0Mg/L: Oxygen, SBE 43 [mg/l]
# name 3 = sbeox0PS: Oxygen, SBE 43 [% saturation]
# name 4 = specc: Specific Conductance [uS/cm]
# name 5 = c0uS/cm: Conductivity [uS/cm]
# name 6 = flECO-AFL: Fluorescence, WET Labs ECO-AFL/FL [mg/m^3]
# name 7 = ph: pH
# name 8 = orp: Oxidation Reduction Potential [mV]
# name 9 = par/sat/log: PAR/Logarithmic, Satlantic
# name 10 = turbWETntu0: Turbidity, WET Labs ECO [NTU]
# name 11 = prdM: Pressure, Strain Gauge [db]
# name 12 = prdE: Pressure, Strain Gauge [psi]
# name 13 = tv290C: Temperature [ITS-90, deg C]
# name 14 = density00: Density [density, kg/m^3]
# name 15 = flag:  0.000e+00
# span 0 =     -0.527,      7.383       
# span 1 =     -0.007,      0.182       
# span 2 =     0.9973,    15.0263       
# span 3 =      9.226,    176.288       
# span 4 =      2.428,     42.516       
# span 5 =   2.303089,  38.506473       
# span 6 =    -1.8043,     6.1992       
# span 7 =      6.787,      8.048       
# span 8 =    40.2738,   342.1570       
# span 9 = 1.2349e-01, 2.4355e+03       
# span 10 =    -0.9539,    10.0781      
# span 11 =     -0.517,      7.241      
# span 12 =     -0.750,     10.502      
# span 13 =    10.8196,    28.0663      
# span 14 =   996.2352,   999.6767      
# span 15 = 0.0000e+00, 0.0000e+00      
# interval = seconds: 0.25
# start_time = Jul 15 2019 11:23:45 [Instrument's time stamp, header]
# bad_flag = -9.990e-29
# <Sensors count="9" >
#   <sensor Channel="1" >
#     <!-- Count, Temperature -->
#     <TemperatureSensor SensorID="58" >
#       <SerialNumber>7809</SerialNumber>
#       <CalibrationDate>24-Mar-19</CalibrationDate>
#       <A0>1.21792325e-003</A0>
#       <A1>2.81669265e-004</A1>
#       <A2>-1.60333336e-006</A2>
#       <A3>1.98414625e-007</A3>
#       <Slope>1.00000000</Slope>
#       <Offset>0.0000</Offset>
#     </TemperatureSensor>
#   </sensor>
#   <sensor Channel="2" >
#     <!-- Frequency 0, Conductivity -->
#     <ConductivitySensor SensorID="3" >
#       <SerialNumber>7809</SerialNumber>
#       <CalibrationDate>24-Mar-19</CalibrationDate>
#       <UseG_J>1</UseG_J>
#       <!-- Cell const and series R are applicable only for wide range sensors. -->
#       <SeriesR>0.0000</SeriesR>
#       <CellConst>2000.0000</CellConst>
#       <ConductivityType>0</ConductivityType>
#       <Coefficients equation="0" >
#         <A>0.00000000e+000</A>
#         <B>0.00000000e+000</B>
#         <C>0.00000000e+000</C>
#         <D>0.00000000e+000</D>
#         <M>0.0</M>
#         <CPcor>-9.57000000e-008</CPcor>
#       </Coefficients>
#       <Coefficients equation="1" >
#         <G>-1.00589325e+000</G>
#         <H>1.26816302e-001</H>
#         <I>-1.51560448e-004</I>
#         <J>2.67137274e-005</J>
#         <CPcor>-9.57000000e-008</CPcor>
#         <CTcor>3.2500e-006</CTcor>
#         <!-- WBOTC not applicable unless ConductivityType = 1. -->
#         <WBOTC>0.00000000e+000</WBOTC>
#       </Coefficients>
#       <Slope>1.00000000</Slope>
#       <Offset>0.00000</Offset>
#     </ConductivitySensor>
#   </sensor>
#   <sensor Channel="3" >
#     <!-- Count, Pressure, Strain Gauge -->
#     <PressureSensor SensorID="46" >
#       <SerialNumber>7809</SerialNumber>
#       <CalibrationDate>11-Mar-19</CalibrationDate>
#       <PA0>4.56561833e-002</PA0>
#       <PA1>4.85095118e-004</PA1>
#       <PA2>-2.88327090e-012</PA2>
#       <PTEMPA0>-5.48784562e+001</PTEMPA0>
#       <PTEMPA1>5.53756816e+001</PTEMPA1>
#       <PTEMPA2>-5.86727098e-001</PTEMPA2>
#       <PTCA0>5.25246745e+005</PTCA0>
#       <PTCA1>1.22304214e+001</PTCA1>
#       <PTCA2>-3.56745036e-001</PTCA2>
#       <PTCB0>2.51668750e+001</PTCB0>
#       <PTCB1>3.75000000e-004</PTCB1>
#       <PTCB2>0.00000000e+000</PTCB2>
#       <Offset>0.000000</Offset>
#     </PressureSensor>
#   </sensor>
#   <sensor Channel="4" >
#     <!-- A/D voltage 0, Oxygen, SBE 43 -->
#     <OxygenSensor SensorID="38" >
#       <SerialNumber>0434</SerialNumber>
#       <CalibrationDate>13-Apr-19</CalibrationDate>
#       <Use2007Equation>1</Use2007Equation>
#       <CalibrationCoefficients equation="0" >
#         <!-- Coefficients for Owens-Millard equation. -->
#         <Boc>0.0000</Boc>
#         <Soc>0.0000e+000</Soc>
#         <offset>0.0000</offset>
#         <Pcor>0.00e+000</Pcor>
#         <Tcor>0.0000</Tcor>
#         <Tau>0.0</Tau>
#       </CalibrationCoefficients>
#       <CalibrationCoefficients equation="1" >
#         <!-- Coefficients for Sea-Bird equation - SBE calibration in 2007 and later. -->
#         <Soc>4.2007e-001</Soc>
#         <offset>-0.6109</offset>
#         <A>-4.3656e-003</A>
#         <B> 1.7017e-004</B>
#         <C>-2.5341e-006</C>
#         <D0> 2.5826e+000</D0>
#         <D1> 1.92634e-004</D1>
#         <D2>-4.64803e-002</D2>
#         <E> 3.6000e-002</E>
#         <Tau20> 1.1800</Tau20>
#         <H1>-3.3000e-002</H1>
#         <H2> 5.0000e+003</H2>
#         <H3> 1.4500e+003</H3>
#       </CalibrationCoefficients>
#     </OxygenSensor>
#   </sensor>
#   <sensor Channel="5" >
#     <!-- A/D voltage 1, PAR/Logarithmic, Satlantic -->
#     <PARLog_SatlanticSensor SensorID="76" >
#       <SerialNumber>1122</SerialNumber>
#       <CalibrationDate>08-May-2019</CalibrationDate>
#       <a0>9.7456e-001</a0>
#       <a1>8.1640e-001</a1>
#       <Im>1.3589e+000</Im>
#       <Multiplier>1.0000e+000</Multiplier>
#     </PARLog_SatlanticSensor>
#   </sensor>
#   <sensor Channel="6" >
#     <!-- A/D voltage 2, pH -->
#     <pH_Sensor SensorID="43" >
#       <SerialNumber>0363</SerialNumber>
#       <CalibrationDate>15-Apr-19</CalibrationDate>
#       <Slope>4.5952</Slope>
#       <Offset>2.5370</Offset>
#     </pH_Sensor>
#   </sensor>
#   <sensor Channel="7" >
#     <!-- A/D voltage 3, Oxidation Reduction Potential -->
#     <OxidationReductionPotentialSensor SensorID="41" >
#       <SerialNumber>0363</SerialNumber>
#       <CalibrationDate>15-Apr-19</CalibrationDate>
#       <B>2.499480</B>
#       <M>-0.496195</M>
#       <Offset>0.0</Offset>
#     </OxidationReductionPotentialSensor>
#   </sensor>
#   <sensor Channel="8" >
#     <!-- A/D voltage 4, Fluorometer, WET Labs ECO-AFL/FL -->
#     <FluoroWetlabECO_AFL_FL_Sensor SensorID="20" >
#       <SerialNumber>FLNTURT-2496</SerialNumber>
#       <CalibrationDate>08-May-2019</CalibrationDate>
#       <ScaleFactor>5.00000000e+001</ScaleFactor>
#       <!-- Dark output -->
#       <Vblank>0.0550</Vblank>
#     </FluoroWetlabECO_AFL_FL_Sensor>
#   </sensor>
#   <sensor Channel="9" >
#     <!-- A/D voltage 5, Turbidity Meter, WET Labs, ECO-NTU -->
#     <TurbidityMeter SensorID="67" >
#       <SerialNumber>FLNTURT-2496</SerialNumber>
#       <CalibrationDate>08-May-2019</CalibrationDate>
#       <ScaleFactor>189.000000</ScaleFactor>
#       <!-- Dark output -->
#       <DarkVoltage>0.071000</DarkVoltage>
#     </TurbidityMeter>
#   </sensor>
# </Sensors>
# datcnv_date = Jul 15 2019 16:42:07, 7.26.7.129 [datcnv_vars = 15]
# datcnv_in = C:\DATA\071519_fcr45.hex C:\DATA\SBE19plusV2_7809.xmlcon
# datcnv_skipover = 0
# datcnv_ox_hysteresis_correction = yes
# datcnv_ox_tau_correction = yes
# filter_date = Jul 15 2019 16:42:29, 7.26.7.129
# filter_in = C:\DATA\071519_fcr45.cnv
# filter_low_pass_tc_A = 0.030
# filter_low_pass_tc_B = 0.150
# filter_low_pass_A_vars = prdM prdE tv290C density00
# filter_low_pass_B_vars = depFM dz/dtM sbeox0Mg/L sbeox0PS specc c0uS/cm flECO-AFL ph orp par/sat/log turbWETntu0
# alignctd_date = Jul 15 2019 16:42:45, 7.26.7.129
# alignctd_in = C:\DATA\071519_fcr45.cnv
# alignctd_adv = dz/dtM 1.000, sbeox0Mg/L 1.000, sbeox0PS 1.000, specc 1.000, c0uS/cm 1.000, flECO-AFL 1.000, ph 1.000, orp 1.000, turbWETntu0 1.000                                                                                 
# file_type = ascii
*END*
     -0.525     -0.001     8.3033     95.798      6.464   6.135375    -0.1257      6.791   342.1570 8.7740e+01    -0.0480     -0.515     -0.747    22.2104   997.7303 0.0000e+00
     -0.526     -0.001     8.3007     95.786      6.482   6.153854    -0.1383      6.789   340.2230 8.9737e+01    -0.0746     -0.516     -0.748    22.3113   997.7072 0.0000e+00
     -0.526     -0.001     8.3003     95.796      6.395   6.072256    -0.1377      6.787   338.1381 9.3872e+01    -0.1770     -0.516     -0.748    22.4002   997.6869 0.0000e+00
     -0.526     -0.000     8.3012     95.812      6.290   5.972683    -0.1275      6.787   337.6850 1.0174e+02    -0.3681     -0.516     -0.748    22.4382   997.6783 0.0000e+00
     -0.526 -1.861e-08     8.3037     95.836      6.148   5.837184    -0.1188      6.788   338.8738 1.1606e+02    -0.4836     -0.516     -0.748    22.4550   997.6745 0.0000e+00
     -0.526 -2.048e-07     8.3080     95.876      5.739   5.447969    -0.1187      6.789   340.3806 1.3878e+02    -0.5249     -0.516     -0.748    22.4602   997.6732 0.0000e+00
     -0.526 -2.048e-07     8.3106     95.897      4.939   4.688882    -0.1262      6.790   340.1580 1.6956e+02    -0.5728     -0.516     -0.748    22.4718   997.6705 0.0000e+00
     -0.526 -1.861e-08     8.3105     95.886      4.291   4.073785    -0.1325      6.793   337.9900 2.4700e+02    -0.5714     -0.516     -0.748    22.4747   997.6698 0.0000e+00
     -0.526 -1.692e-09     8.3111     95.885      3.846   3.651008    -0.1339      6.797   334.7301 4.9520e+02    -0.5409     -0.516     -0.748    22.4700   997.6709 0.0000e+00
     -0.526 -1.549e-10     8.3148     95.920      3.360   3.189158    -0.1343      6.801   330.9429 8.8263e+02    -0.5322     -0.515     -0.748    22.4643   997.6723 0.0000e+00
     -0.526 -2.544e-11     8.3176     95.947      2.949   2.798622    -0.1279      6.803   326.8736 1.1630e+03    -0.5319     -0.516     -0.749    22.4597   997.6730 0.0000e+00
     -0.526 -1.400e-10     8.3165     95.929      2.678   2.540988    -0.1262      6.804   323.2139 1.2599e+03    -0.5370     -0.516     -0.748    22.4548   997.6740 0.0000e+00
     -0.527 -1.540e-09     8.3150     95.907      2.615   2.482021    -0.1314      6.804   321.8829 1.2449e+03    -0.5605     -0.516     -0.749    22.4496   997.6751 0.0000e+00
     -0.527 -1.693e-08     8.3143     95.893      2.665   2.529223    -0.1308      6.804   322.4823 1.1822e+03    -0.5871     -0.517     -0.749    22.4453   997.6760 0.0000e+00
     -0.527 -1.863e-07     8.3097     95.834      2.612   2.478054    -0.1273      6.804   322.6313 1.1655e+03    -0.5967     -0.516     -0.749    22.4422   997.6767 0.0000e+00
     -0.527 -1.861e-07     8.3037     95.759      2.498   2.370259    -0.1234      6.803   323.2545 1.1737e+03    -0.5778     -0.517     -0.749    22.4402   997.6771 0.0000e+00
     -0.527 -1.484e-08     8.3009     95.720      2.428   2.303089    -0.1266      6.801   323.8224 1.1335e+03    -0.5557     -0.516     -0.748    22.4373   997.6777 0.0000e+00
     -0.527 2.1480e-08     8.3002     95.705      2.691   2.553009    -0.1311      6.801   321.5819 1.0881e+03    -0.5581     -0.516     -0.749    22.4347   997.6784 0.0000e+00
     -0.527 2.5308e-07     8.3021     95.721      3.146   2.984092    -0.1265      6.803   315.9548 1.0927e+03    -0.5413     -0.516     -0.749    22.4309   997.6792 0.0000e+00
     -0.527      0.000     8.3044     95.742      3.046   2.889553    -0.1665      6.805   306.7202 1.1667e+03    -0.6154     -0.517     -0.749    22.4282   997.6799 0.0000e+00
     -0.527      0.000     8.3050     95.746      2.556   2.423838    -0.2591      6.809   292.0941 1.3380e+03    -0.8312     -0.517     -0.749    22.4227   997.6811 0.0000e+00
     -0.527      0.000     8.3065     95.769      2.553   2.422436    -0.3098      6.811   268.2573 1.5259e+03    -0.9539     -0.516     -0.749    22.4217   997.6814 0.0000e+00
     -0.527      0.004     8.3045     95.809      6.279   5.977474    -0.3108      6.787   190.7614 1.3622e+03    -0.9527     -0.517     -0.749    22.4140   997.6833 0.0000e+00
     -0.527      0.016     8.2597     95.812     17.496  16.821108    -0.3411      6.794    72.5802 9.7499e+02    -0.8167     -0.516     -0.750    22.4177   997.6824 0.0000e+00
     -0.527      0.039     8.1292     95.759     30.531  29.799849    -0.7290      6.964    40.2738 1.2019e+03     0.9528     -0.516     -0.748    22.4053   997.6851 0.0000e+00
     -0.525      0.069     7.9501     95.685     36.729  36.559993    -1.4366      7.262    94.2294 1.9068e+03     4.2528     -0.517     -0.750    22.4239   997.6808 0.0000e+00
     -0.513      0.104     7.7952     95.606     37.539  38.095932    -1.8043      7.536   134.1213 2.2993e+03     6.0812     -0.515     -0.747    22.3944   997.6874 0.0000e+00
     -0.477      0.138     7.6863     95.563     37.303  38.406690    -1.7503      7.728   147.3868 2.3930e+03     6.1494     -0.476     -0.690    22.4826   997.6712 0.0000e+00
     -0.423      0.165     7.6094     95.569     36.968  38.477343    -0.8702      7.853   153.7825 2.4355e+03     4.9467     -0.413     -0.600    23.4098   997.4571 0.0000e+00
     -0.367      0.180     7.5564     95.617     36.700  38.506473     0.7568      7.934   156.9893 2.4232e+03     2.7801     -0.360     -0.521    24.8178   997.1102 0.0000e+00
     -0.312      0.182     7.5302     95.765     36.503  38.505466     1.6648      7.983   157.5946 2.0809e+03     1.6481     -0.304     -0.441    25.8423   996.8445 0.0000e+00
     -0.263      0.175     7.5270     96.016     36.346  38.465483     1.7769      8.012   150.6043 1.3732e+03     1.5827     -0.254     -0.368    26.5267   996.6618 0.0000e+00
     -0.223      0.167     7.5376     96.307     36.166  38.340618     1.8954      8.030   144.5715 8.1571e+02     1.6299     -0.216     -0.314    27.0867   996.5087 0.0000e+00
     -0.190      0.165     7.5572     96.627     35.947  38.138414     2.1006      8.038   153.2256 5.6804e+02     1.7265     -0.185     -0.268    27.5066   996.3924 0.0000e+00
     -0.159      0.168     7.5852     97.005     35.799  37.988472     2.2290      8.035   163.1780 4.7264e+02     1.7679     -0.158     -0.228    27.7734   996.3175 0.0000e+00
     -0.120      0.171     7.6227     97.442     35.754  37.924170     2.2691      8.023   165.7023 4.4634e+02     1.7696     -0.124     -0.180    27.9373   996.2712 0.0000e+00
     -0.066      0.170     7.6666     97.911     35.738  37.868719     2.4808      8.008   166.8829 4.1129e+02     1.8135     -0.069     -0.100    28.0178   996.2486 0.0000e+00
     -0.006      0.162     7.7080     98.365     35.666  37.762279     2.8639      7.992   168.0744 3.5091e+02     1.8402     -0.000     -0.001    28.0465   996.2407 0.0000e+00
      0.042      0.143     7.7415     98.754     35.577  37.652777     3.0699      7.975   169.0087 2.8118e+02     1.7971      0.047      0.068    28.0663   996.2352 0.0000e+00
      0.076      0.115     7.7703     99.062     35.573  37.623790     3.0896      7.958   169.7481 2.3164e+02     1.7513      0.077      0.112    28.0433   996.2419 0.0000e+00
      0.100      0.084     7.7904     99.246     35.640  37.665666     3.1278      7.942   170.7341 2.1285e+02     1.7121      0.103      0.149    27.9681   996.2634 0.0000e+00
      0.110      0.056     7.7992     99.346     35.752  37.778200     3.1862      7.926   171.8949 2.1840e+02     1.6181      0.113      0.163    27.9165   996.2780 0.0000e+00
      0.112      0.037     7.8049     99.456     35.917  37.968811     3.2144      7.911   173.3731 2.2770e+02     1.5651      0.108      0.158    27.9215   996.2765 0.0000e+00
      0.113      0.029     7.8115     99.560     36.062  38.129562     3.2173      7.897   174.6690 2.2246e+02     1.5625      0.110      0.159    27.8841   996.2871 0.0000e+00
      0.118      0.026     7.8489     99.997     36.142  38.198422     3.2124      7.885   175.4314 2.1067e+02     1.5217      0.115      0.168    27.8148   996.3068 0.0000e+00
      0.126      0.024     7.9343    101.030     36.193  38.230081     3.1811      7.874   176.2247 1.9779e+02     1.4974      0.122      0.176    27.8149   996.3068 0.0000e+00
      0.137      0.019     8.0081    101.960     36.223  38.258397     3.1244      7.865   177.1191 1.8521e+02     1.4984      0.134      0.193    27.8541   996.2958 0.0000e+00
      0.149      0.010     8.0135    102.062     36.238  38.286877     3.0914      7.855   177.7286 1.8005e+02     1.5008      0.149      0.216    27.8764   996.2897 0.0000e+00
      0.155      0.002     7.9565    101.387     36.251  38.320548     3.0933      7.842   177.8286 1.8115e+02     1.5266      0.158      0.229    27.8427   996.2993 0.0000e+00
      0.148     -0.004     7.8572    100.191     36.250  38.348157     3.1560      7.829   172.8219 1.8626e+02     1.5480      0.149      0.216    27.7926   996.3133 0.0000e+00
      0.133     -0.007     7.7290     98.645     36.232  38.366830     3.2686      7.819   168.0417 1.9242e+02     1.5620      0.127      0.185    27.7923   996.3134 0.0000e+00
      0.125     -0.006     7.5966     97.030     36.192  38.355956     3.3290      7.812   173.4624 1.9525e+02     1.5650      0.117      0.170    27.8198   996.3056 0.0000e+00
      0.129      0.003     7.4739     95.491     36.110  38.280214     3.3481      7.805   178.4804 1.9330e+02     1.5524      0.126      0.183    27.8448   996.2985 0.0000e+00
      0.135      0.017     7.3639     94.066     35.995  38.149300     3.4731      7.795   178.7245 1.8856e+02     1.6063      0.134      0.194    27.8806   996.2884 0.0000e+00
      0.139      0.031     7.2774     92.921     35.910  38.042600     3.6874      7.786   180.7157 1.8445e+02     1.7244      0.134      0.195    27.9412   996.2712 0.0000e+00
      0.147      0.040     7.2135     92.081     35.946  38.069178     3.7975      7.777   182.5955 1.7822e+02     1.8010      0.141      0.204    27.9954   996.2559 0.0000e+00
      0.163      0.045     7.1625     91.411     36.033  38.153256     3.8162      7.769   183.2984 1.6917e+02     1.8113      0.159      0.230    28.0097   996.2520 0.0000e+00
      0.180      0.048     7.1216     90.855     36.063  38.170496     3.8526      7.763   183.8798 1.5981e+02     1.7842      0.179      0.259    27.9899   996.2576 0.0000e+00
      0.193      0.048     7.0929     90.435     36.068  38.150650     3.9000      7.756   184.4620 1.5017e+02     1.7676      0.191      0.277    27.9584   996.2665 0.0000e+00
      0.203      0.044     7.0694     90.088     36.044  38.103694     3.9295      7.751   184.9170 1.4167e+02     1.7746      0.197      0.286    27.9429   996.2710 0.0000e+00
      0.213      0.036     7.0444     89.742     36.002  38.047047     3.9395      7.749   184.6496 1.3347e+02     1.7697      0.208      0.303    27.9422   996.2713 0.0000e+00
      0.225      0.030     7.0251     89.485     35.997  38.037012     3.9699      7.746   178.6471 1.2565e+02     1.7424      0.223      0.322    27.9210   996.2773 0.0000e+00
      0.233      0.027     7.0186     89.387     36.011  38.045825     4.0278      7.741   173.3440 1.2090e+02     1.7059      0.231      0.333    27.8787   996.2894 0.0000e+00
      0.235      0.025     7.0222     89.405     36.005  38.026640     4.0588      7.736   179.6398 1.1837e+02     1.6896      0.231      0.335    27.8452   996.2989 0.0000e+00
