* Sea-Bird SBE19plus  Data File:
* FileName = C:\DATA\072318_fcr50_0004.hex
* Software version 2.6.3.104 SB_Terminal.dll
* Temperature SN = 7809
* Conductivity SN = 7809
* System UpLoad Time = Jul 23 2018 15:33:58
* <ApplicationData>
* <Seaterm232>
* <SoftwareVersion>2.6.3.104</SoftwareVersion>
* <BuildDate>30-Jun-2017</BuildDate>
* </Seaterm232>
* </ApplicationData>
* cast   4 23 Jul 2018 14:18:10 samples 3223 to 3812, avg = 1, stop = mag switch
# nquan = 15
# nvalues = 403                         
# units = specified
# name 0 = depFM: Depth [fresh water, m]
# name 1 = dz/dtM: Descent Rate [m/s]
# name 2 = sbeox0Mg/L: Oxygen, SBE 43 [mg/l]
# name 3 = sbeox0PS: Oxygen, SBE 43 [% saturation]
# name 4 = specc: Specific Conductance [uS/cm]
# name 5 = c0uS/cm: Conductivity [uS/cm]
# name 6 = flECO-AFL: Fluorescence, WET Labs ECO-AFL/FL [mg/m^3]
# name 7 = ph: pH
# name 8 = orp: Oxidation Reduction Potential [mV]
# name 9 = par/sat/log: PAR/Logarithmic, Satlantic
# name 10 = turbWETntu0: Turbidity, WET Labs ECO [NTU]
# name 11 = prdM: Pressure, Strain Gauge [db]
# name 12 = prdE: Pressure, Strain Gauge [psi]
# name 13 = tv290C: Temperature [ITS-90, deg C]
# name 14 = flag:  0.000e+00
# span 0 =     -0.619,      2.088       
# span 1 =     -0.105,      0.126       
# span 2 =     6.5308,     9.2592       
# span 3 =     76.985,    111.998       
# span 4 =      0.132,     39.962       
# span 5 =   0.127097,  38.872077       
# span 6 =    -0.1952,     8.8020       
# span 7 =      6.239,      8.211       
# span 8 =   257.8735,   473.9774       
# span 9 = 5.2094e+00, 1.2913e+02       
# span 10 =    -0.2878,    49.4636      
# span 11 =     -0.608,      2.048      
# span 12 =     -0.881,      2.970      
# span 13 =    20.5430,    25.0479      
# span 14 = 0.0000e+00, 0.0000e+00      
# interval = seconds: 0.25
# start_time = Jul 23 2018 14:18:10 [Instrument's time stamp, header]
# bad_flag = -9.990e-29
# <Sensors count="9" >
#   <sensor Channel="1" >
#     <!-- Count, Temperature -->
#     <TemperatureSensor SensorID="58" >
#       <SerialNumber>7809</SerialNumber>
#       <CalibrationDate>09-Mar-18</CalibrationDate>
#       <A0>1.21093245e-003</A0>
#       <A1>2.84356597e-004</A1>
#       <A2>-1.94507398e-006</A2>
#       <A3>2.12806664e-007</A3>
#       <Slope>1.00000000</Slope>
#       <Offset>0.0000</Offset>
#     </TemperatureSensor>
#   </sensor>
#   <sensor Channel="2" >
#     <!-- Frequency 0, Conductivity -->
#     <ConductivitySensor SensorID="3" >
#       <SerialNumber>7809</SerialNumber>
#       <CalibrationDate>09-Mar-18</CalibrationDate>
#       <UseG_J>1</UseG_J>
#       <!-- Cell const and series R are applicable only for wide range sensors. -->
#       <SeriesR>0.0000</SeriesR>
#       <CellConst>2000.0000</CellConst>
#       <ConductivityType>0</ConductivityType>
#       <Coefficients equation="0" >
#         <A>0.00000000e+000</A>
#         <B>0.00000000e+000</B>
#         <C>0.00000000e+000</C>
#         <D>0.00000000e+000</D>
#         <M>0.0</M>
#         <CPcor>-9.57000000e-008</CPcor>
#       </Coefficients>
#       <Coefficients equation="1" >
#         <G>-1.00672082e+000</G>
#         <H>1.26906489e-001</H>
#         <I>-1.40584351e-004</I>
#         <J>2.47837121e-005</J>
#         <CPcor>-9.57000000e-008</CPcor>
#         <CTcor>3.2500e-006</CTcor>
#         <!-- WBOTC not applicable unless ConductivityType = 1. -->
#         <WBOTC>0.00000000e+000</WBOTC>
#       </Coefficients>
#       <Slope>1.00000000</Slope>
#       <Offset>0.00000</Offset>
#     </ConductivitySensor>
#   </sensor>
#   <sensor Channel="3" >
#     <!-- Count, Pressure, Strain Gauge -->
#     <PressureSensor SensorID="46" >
#       <SerialNumber>7809</SerialNumber>
#       <CalibrationDate>07-Mar-18</CalibrationDate>
#       <PA0>-4.08176359e-002</PA0>
#       <PA1>4.85188419e-004</PA1>
#       <PA2>-3.51168169e-012</PA2>
#       <PTEMPA0>-5.37806900e+001</PTEMPA0>
#       <PTEMPA1>5.36620721e+001</PTEMPA1>
#       <PTEMPA2>4.87214332e-002</PTEMPA2>
#       <PTCA0>5.25213435e+005</PTCA0>
#       <PTCA1>1.79532409e+000</PTCA1>
#       <PTCA2>-2.84353509e-001</PTCA2>
#       <PTCB0>2.51668750e+001</PTCB0>
#       <PTCB1>3.75000000e-004</PTCB1>
#       <PTCB2>0.00000000e+000</PTCB2>
#       <Offset>0.000000</Offset>
#     </PressureSensor>
#   </sensor>
#   <sensor Channel="4" >
#     <!-- A/D voltage 0, pH -->
#     <pH_Sensor SensorID="43" >
#       <SerialNumber>0363</SerialNumber>
#       <CalibrationDate>16-Mar-18</CalibrationDate>
#       <Slope>4.6194</Slope>
#       <Offset>2.5947</Offset>
#     </pH_Sensor>
#   </sensor>
#   <sensor Channel="5" >
#     <!-- A/D voltage 1, Oxidation Reduction Potential -->
#     <OxidationReductionPotentialSensor SensorID="41" >
#       <SerialNumber>0363</SerialNumber>
#       <CalibrationDate>16-Mar-18</CalibrationDate>
#       <B>2.499480</B>
#       <M>-0.496195</M>
#       <Offset>0.0</Offset>
#     </OxidationReductionPotentialSensor>
#   </sensor>
#   <sensor Channel="6" >
#     <!-- A/D voltage 2, Oxygen, SBE 43 -->
#     <OxygenSensor SensorID="38" >
#       <SerialNumber>0434</SerialNumber>
#       <CalibrationDate>13-Mar-18</CalibrationDate>
#       <Use2007Equation>1</Use2007Equation>
#       <CalibrationCoefficients equation="0" >
#         <!-- Coefficients for Owens-Millard equation. -->
#         <Boc>0.0000</Boc>
#         <Soc>0.0000e+000</Soc>
#         <offset>0.0000</offset>
#         <Pcor>0.00e+000</Pcor>
#         <Tcor>0.0000</Tcor>
#         <Tau>0.0</Tau>
#       </CalibrationCoefficients>
#       <CalibrationCoefficients equation="1" >
#         <!-- Coefficients for Sea-Bird equation - SBE calibration in 2007 and later. -->
#         <Soc>4.5718e-001</Soc>
#         <offset>-0.6113</offset>
#         <A>-4.0649e-003</A>
#         <B> 2.0945e-004</B>
#         <C>-3.3182e-006</C>
#         <D0> 2.5826e+000</D0>
#         <D1> 1.92634e-004</D1>
#         <D2>-4.64803e-002</D2>
#         <E> 3.6000e-002</E>
#         <Tau20> 1.2200</Tau20>
#         <H1>-3.3000e-002</H1>
#         <H2> 5.0000e+003</H2>
#         <H3> 1.4500e+003</H3>
#       </CalibrationCoefficients>
#     </OxygenSensor>
#   </sensor>
#   <sensor Channel="7" >
#     <!-- A/D voltage 3, PAR/Logarithmic, Satlantic -->
#     <PARLog_SatlanticSensor SensorID="76" >
#       <SerialNumber>1122</SerialNumber>
#       <CalibrationDate>22-Jun-2017</CalibrationDate>
#       <a0>9.6090e-001</a0>
#       <a1>8.0780e-001</a1>
#       <Im>1.3589e+000</Im>
#       <Multiplier>1.0000e+000</Multiplier>
#     </PARLog_SatlanticSensor>
#   </sensor>
#   <sensor Channel="8" >
#     <!-- A/D voltage 4, Fluorometer, WET Labs ECO-AFL/FL -->
#     <FluoroWetlabECO_AFL_FL_Sensor SensorID="20" >
#       <SerialNumber>FLNTURT-2496</SerialNumber>
#       <CalibrationDate>25-Jan-2017</CalibrationDate>
#       <ScaleFactor>5.30000000e+001</ScaleFactor>
#       <!-- Dark output -->
#       <Vblank>0.0560</Vblank>
#     </FluoroWetlabECO_AFL_FL_Sensor>
#   </sensor>
#   <sensor Channel="9" >
#     <!-- A/D voltage 5, Turbidity Meter, WET Labs, ECO-NTU -->
#     <TurbidityMeter SensorID="67" >
#       <SerialNumber>FLNTURT-2496</SerialNumber>
#       <CalibrationDate>25-Jan-2017</CalibrationDate>
#       <ScaleFactor>176.000000</ScaleFactor>
#       <!-- Dark output -->
#       <DarkVoltage>0.072000</DarkVoltage>
#     </TurbidityMeter>
#   </sensor>
# </Sensors>
# datcnv_date = Jul 23 2018 15:39:15, 7.26.7.114 [datcnv_vars = 14]
# datcnv_in = C:\DATA\072318_fcr10.hex C:\DATA\SBE19plusV2_7809.xmlcon
# datcnv_skipover = 0
# datcnv_ox_hysteresis_correction = yes
# datcnv_ox_tau_correction = yes
# filter_date = Jul 23 2018 15:39:39, 7.26.7.114
# filter_in = C:\DATA\072318_fcr10.cnv
# filter_low_pass_tc_A = 0.030
# filter_low_pass_tc_B = 0.150
# filter_low_pass_A_vars = prdM prdE tv290C
# filter_low_pass_B_vars = depFM dz/dtM sbeox0Mg/L sbeox0PS specc c0uS/cm flECO-AFL ph orp par/sat/log turbWETntu0
# alignctd_date = Jul 23 2018 15:40:00, 7.26.7.114
# alignctd_in = C:\DATA\072318_fcr10.cnv
# alignctd_adv = dz/dtM 1.000, sbeox0Mg/L 1.000, sbeox0PS 1.000, specc 1.000, c0uS/cm 1.000, flECO-AFL 1.000, ph 1.000, orp 1.000, turbWETntu0 1.000                                                                                 
# file_type = ascii
*END*
     -0.619 1.0768e-23     8.8311     98.182      0.575   0.523608    -0.1873      6.243   465.1316 9.5267e+01    -0.2554     -0.607     -0.880    20.5430 0.0000e+00
     -0.619 1.1845e-22     8.8319     98.192      0.562   0.512163    -0.1935      6.243   465.5104 9.7248e+01    -0.2848     -0.607     -0.881    20.5433 0.0000e+00
     -0.618 1.3029e-21     8.8331     98.206      0.576   0.524833    -0.1851      6.242   465.3839 9.9825e+01    -0.2840     -0.606     -0.880    20.5436 0.0000e+00
     -0.618 1.4332e-20     8.8336     98.211      0.604   0.549979    -0.1876      6.241   464.6344 1.0191e+02    -0.2460     -0.606     -0.879    20.5436 0.0000e+00
     -0.619 1.5765e-19     8.8336     98.211      0.618   0.562547    -0.1952      6.241   463.4171 1.0273e+02    -0.1915     -0.607     -0.880    20.5436 0.0000e+00
     -0.619 1.7342e-18     8.8329     98.203      0.604   0.549968    -0.1941      6.241   462.2813 1.0222e+02    -0.1743     -0.607     -0.880    20.5437 0.0000e+00
     -0.619 1.9076e-17     8.8319     98.192      0.576   0.524718    -0.1927      6.241   462.0859 9.8914e+01    -0.2208     -0.607     -0.880    20.5436 0.0000e+00
     -0.619 2.0984e-16     8.8321     98.194      0.560   0.510893    -0.1885      6.241   461.9150 9.3216e+01    -0.2666     -0.607     -0.880    20.5437 0.0000e+00
     -0.619 2.3082e-15     8.8326     98.199      0.559   0.509646    -0.1793      6.241   461.1623 9.0374e+01    -0.2702     -0.607     -0.880    20.5437 0.0000e+00
     -0.619 2.5390e-14     8.8328     98.201      0.559   0.509637    -0.1738      6.241   462.1056 9.1937e+01    -0.2642     -0.607     -0.880    20.5438 0.0000e+00
     -0.619 2.7929e-13     8.8334     98.208      0.560   0.510780    -0.1763      6.240   466.6948 9.4203e+01    -0.2547     -0.607     -0.880    20.5437 0.0000e+00
     -0.619 3.0722e-12     8.8331     98.205      0.574   0.523470    -0.1825      6.239   472.1669 9.5143e+01    -0.2469     -0.607     -0.881    20.5437 0.0000e+00
     -0.619 3.3794e-11     8.8327     98.200      0.589   0.536248    -0.1848      6.239   473.9774 9.5489e+01    -0.2302     -0.607     -0.880    20.5437 0.0000e+00
     -0.619 3.7174e-10     8.8330     98.204      0.591   0.538450    -0.1767      6.240   473.7019 9.6121e+01    -0.2055     -0.608     -0.881    20.5438 0.0000e+00
     -0.619 4.0891e-09     8.8330     98.205      0.604   0.550093    -0.1676      6.240   473.2236 9.7226e+01    -0.2232     -0.607     -0.881    20.5438 0.0000e+00
     -0.619 4.4980e-08     8.8331     98.206      0.604   0.550188    -0.1752      6.240   470.5170 9.8163e+01    -0.2612     -0.607     -0.881    20.5438 0.0000e+00
     -0.619 4.9478e-07     8.8324     98.198      0.593   0.539604    -0.1856      6.240   465.8415 9.8602e+01    -0.2680     -0.607     -0.880    20.5438 0.0000e+00
     -0.619      0.000     8.8313     98.186      0.603   0.548952    -0.1838      6.241   464.2735 9.8539e+01    -0.2446     -0.608     -0.881    20.5438 0.0000e+00
     -0.619      0.000     8.8315     98.188      0.589   0.536384    -0.1806      6.241   464.7216 9.6514e+01    -0.2223     -0.607     -0.880    20.5439 0.0000e+00
     -0.619      0.001     8.8319     98.193      0.565   0.514470    -0.1834      6.241   461.2791 9.1902e+01    -0.2122     -0.607     -0.880    20.5438 0.0000e+00
     -0.619      0.002     8.8317     98.191      0.590   0.537642    -0.1807      6.242   457.7546 8.6369e+01    -0.1831     -0.607     -0.881    20.5440 0.0000e+00
     -0.619      0.005     8.8318     98.194      0.618   0.562911    -0.1753      6.243   457.7276 8.2079e+01    -0.1761     -0.607     -0.880    20.5442 0.0000e+00
     -0.619      0.007     8.8318     98.195      0.622   0.566342    -0.1824      6.243   458.8012 8.0257e+01    -0.2187     -0.607     -0.880    20.5442 0.0000e+00
     -0.618      0.007     8.8316     98.194      0.636   0.579127    -0.1844      6.243   458.6901 8.0266e+01    -0.2402     -0.607     -0.880    20.5443 0.0000e+00
     -0.613      0.006     8.8325     98.206      0.649   0.590676    -0.1722      6.244   457.4171 8.0455e+01    -0.2234     -0.602     -0.872    20.5443 0.0000e+00
     -0.607      0.005     8.8344     98.230      0.636   0.579150    -0.1630      6.244   457.4332 8.0330e+01    -0.1979     -0.593     -0.860    20.5446 0.0000e+00
     -0.607      0.004     8.8356     98.245      0.621   0.566584    -0.1659      6.243   459.0567 8.0096e+01    -0.2073     -0.594     -0.861    20.5458 0.0000e+00
     -0.610      0.001     8.8356     98.247      0.620   0.565565    -0.1792      6.243   460.7854 7.9875e+01    -0.2448     -0.600     -0.871    20.5470 0.0000e+00
     -0.611     -0.001     8.8344     98.237      0.622   0.566832    -0.1861      6.243   461.9875 7.9390e+01    -0.2553     -0.600     -0.871    20.5481 0.0000e+00
     -0.610      0.001     8.8310     98.227      0.638   0.581912    -0.1766      6.244   461.2017 7.8825e+01    -0.2427     -0.597     -0.865    20.5487 0.0000e+00
     -0.611      0.008     8.8094     98.234      0.680   0.621063    -0.1743      6.254   440.5294 8.2487e+01    -0.2140     -0.597     -0.866    20.5509 0.0000e+00
     -0.614      0.016     8.7380     98.239      0.581   0.532916    -0.1851      6.290   405.0271 9.0824e+01    -0.1840     -0.604     -0.876    20.5504 0.0000e+00
     -0.611      0.023     8.6260     98.246      0.366   0.340481    -0.1885      6.349   391.6756 9.7392e+01    -0.1848     -0.604     -0.875    20.5524 0.0000e+00
     -0.599      0.027     8.5225     98.283      0.274   0.260107    -0.1874      6.394   389.9162 1.0086e+02    -0.2232     -0.588     -0.853    20.5496 0.0000e+00
     -0.584      0.028     8.4486     98.331      0.204   0.195259    -0.1895      6.431   379.7105 1.0449e+02    -0.2520     -0.572     -0.829    20.5676 0.0000e+00
     -0.574      0.028     8.3976     98.360      0.132   0.127097    -0.1868      6.492   373.0755 1.0892e+02    -0.2275     -0.561     -0.813    20.9950 0.0000e+00
     -0.569      0.025     8.3645     98.388      0.138   0.133484    -0.1827      6.581   371.7274 1.1190e+02    -0.2020     -0.556     -0.806    21.8265 0.0000e+00
     -0.567      0.019     8.3415     98.398      0.150   0.145668    -0.1860      6.691   370.3803 1.1269e+02    -0.2177     -0.557     -0.808    22.5027 0.0000e+00
     -0.565      0.014     8.3226     98.386      0.152   0.147593    -0.1890      6.805   369.0044 1.1283e+02    -0.2347     -0.555     -0.806    22.9589 0.0000e+00
     -0.561      0.011     8.3093     98.393      0.161   0.156756    -0.1825      6.904   368.4282 1.1292e+02    -0.2242     -0.550     -0.798    23.2871 0.0000e+00
     -0.556      0.010     8.3010     98.406      0.197   0.193049    -0.1715      6.980   367.9736 1.1306e+02    -0.2126     -0.544     -0.789    23.4936 0.0000e+00
     -0.554      0.010     8.2950     98.404      0.275   0.269356    -0.1760      7.046   367.2933 1.1370e+02    -0.2165     -0.542     -0.786    23.6330 0.0000e+00
     -0.554      0.010     8.2897     98.395      0.325   0.318455    -0.1915      7.116   366.6559 1.1468e+02    -0.2106     -0.543     -0.789    23.7430 0.0000e+00
     -0.553      0.010     8.2857     98.396      0.285   0.279418    -0.1940      7.190   366.0319 1.1530e+02    -0.2022     -0.544     -0.788    23.8374 0.0000e+00
     -0.550      0.009     8.2840     98.406      0.246   0.241243    -0.1867      7.259   365.2545 1.1551e+02    -0.2363     -0.539     -0.782    23.8944 0.0000e+00
     -0.545      0.009     8.2824     98.391      0.307   0.300748    -0.1867      7.315   364.4841 1.1547e+02    -0.2878     -0.533     -0.775    23.9263 0.0000e+00
     -0.541      0.009     8.2814     98.371      0.437   0.428197    -0.1845      7.355   364.2889 1.1464e+02    -0.2761     -0.528     -0.766    23.9518 0.0000e+00
     -0.540      0.008     8.2812     98.362      0.525   0.514002    -0.1690      7.385   364.2702 1.1306e+02    -0.2162     -0.529     -0.767    23.9827 0.0000e+00
     -0.541      0.006     8.2815     98.363      0.525   0.513865    -0.1646      7.435   364.2577 1.1212e+02    -0.1739     -0.532     -0.772    24.0011 0.0000e+00
     -0.540      0.004     8.2840     98.378      0.565   0.553355    -0.1781      7.520   364.8271 1.1220e+02    -0.1011     -0.531     -0.770    23.9999 0.0000e+00
     -0.537      0.004     8.2868     98.388      0.754   0.737832    -0.1756      7.617   365.4752 1.1285e+02    -0.0072     -0.526     -0.763    23.9915 0.0000e+00
     -0.535      0.005     8.2879     98.379      0.925   0.905419    -0.1609      7.700   365.5551 1.1370e+02     0.0159     -0.523     -0.759    23.9884 0.0000e+00
     -0.535      0.005     8.2886     98.373      0.951   0.930929    -0.1668      7.760   365.5346 1.1425e+02    -0.0053     -0.526     -0.762    23.9905 0.0000e+00
     -0.535      0.005     8.2896     98.369      1.004   0.982849    -0.1824      7.796   365.6580 1.1469e+02    -0.0495     -0.527     -0.764    23.9837 0.0000e+00
     -0.533      0.004     8.2915     98.370      1.178   1.152711    -0.1840      7.816   366.3590 1.1470e+02    -0.1216     -0.522     -0.758    23.9667 0.0000e+00
     -0.530      0.004     8.2940     98.374      1.366   1.335978    -0.1765      7.825   368.2458 1.1414e+02    -0.1751     -0.519     -0.753    23.9530 0.0000e+00
     -0.530      0.004     8.2952     98.366      1.520   1.486557    -0.1745      7.825   369.6291 1.1356e+02    -0.1784     -0.520     -0.754    23.9472 0.0000e+00
     -0.530      0.004     8.2967     98.363      1.613   1.578236    -0.1786      7.823   369.9201 1.1324e+02    -0.0998     -0.520     -0.755    23.9404 0.0000e+00
     -0.529      0.003     8.2992     98.376      1.657   1.620071    -0.1791      7.825   370.5598 1.1313e+02     0.0124     -0.519     -0.753    23.9275 0.0000e+00
     -0.528      0.003     8.3014     98.385      1.909   1.865556    -0.1722      7.828   371.5126 1.1292e+02     0.0492     -0.518     -0.752    23.9133 0.0000e+00
     -0.527      0.003     8.3023     98.377      3.160   3.087819    -0.1777      7.830   372.5781 1.1272e+02     0.0392     -0.517     -0.750    23.9000 0.0000e+00
     -0.526      0.004     8.3029     98.372      5.943   5.807142    -0.1907      7.833   374.0649 1.1260e+02     0.0441     -0.516     -0.748    23.8891 0.0000e+00
     -0.526      0.006     8.3032     98.376     10.372  10.135787    -0.1823      7.837   373.8299 1.1245e+02     0.0481     -0.516     -0.748    23.8809 0.0000e+00
     -0.525      0.008     8.3020     98.371     14.974  14.634295    -0.1775      7.837   370.5970 1.1254e+02     0.0252     -0.515     -0.747    23.8722 0.0000e+00
     -0.523      0.010     8.2999     98.363     17.122  16.736793    -0.1879      7.841   362.5954 1.1270e+02    -0.0186     -0.514     -0.745    23.8602 0.0000e+00
     -0.520      0.014     8.2980     98.368     17.416  17.029326    -0.1883      7.861   352.0238 1.1273e+02    -0.0245     -0.511     -0.740    23.8527 0.0000e+00
     -0.515      0.021     8.2962     98.389     17.732  17.346270    -0.1822      7.886   349.2923 1.1241e+02     0.0151     -0.505     -0.733    23.8519 0.0000e+00
     -0.511      0.027     8.2927     98.394     18.421  18.030372    -0.1787      7.896   353.4873 1.1159e+02     0.0340     -0.502     -0.728    23.8574 0.0000e+00
