* Sea-Bird SBE19plus  Data File:
* FileName = C:\DATA\072318_fcr50_0003.hex
* Software version 2.6.3.104 SB_Terminal.dll
* Temperature SN = 7809
* Conductivity SN = 7809
* System UpLoad Time = Jul 23 2018 15:33:41
* <ApplicationData>
* <Seaterm232>
* <SoftwareVersion>2.6.3.104</SoftwareVersion>
* <BuildDate>30-Jun-2017</BuildDate>
* </Seaterm232>
* </ApplicationData>
* cast   3 23 Jul 2018 13:37:18 samples 2599 to 3222, avg = 1, stop = mag switch
# nquan = 15
# nvalues = 493                         
# units = specified
# name 0 = depFM: Depth [fresh water, m]
# name 1 = dz/dtM: Descent Rate [m/s]
# name 2 = sbeox0Mg/L: Oxygen, SBE 43 [mg/l]
# name 3 = sbeox0PS: Oxygen, SBE 43 [% saturation]
# name 4 = specc: Specific Conductance [uS/cm]
# name 5 = c0uS/cm: Conductivity [uS/cm]
# name 6 = flECO-AFL: Fluorescence, WET Labs ECO-AFL/FL [mg/m^3]
# name 7 = ph: pH
# name 8 = orp: Oxidation Reduction Potential [mV]
# name 9 = par/sat/log: PAR/Logarithmic, Satlantic
# name 10 = turbWETntu0: Turbidity, WET Labs ECO [NTU]
# name 11 = prdM: Pressure, Strain Gauge [db]
# name 12 = prdE: Pressure, Strain Gauge [psi]
# name 13 = tv290C: Temperature [ITS-90, deg C]
# name 14 = flag:  0.000e+00
# span 0 =     -0.623,      6.373       
# span 1 =     -0.043,      0.304       
# span 2 =     1.7625,    14.1957       
# span 3 =     16.660,    163.533       
# span 4 =      1.897,     48.750       
# span 5 =   1.696735,  36.454639       
# span 6 =    -0.1985,     8.9064       
# span 7 =      6.197,      8.431       
# span 8 =   258.9338,   425.3230       
# span 9 = 1.2559e-01, 7.3091e+01       
# span 10 =    -0.2636,    12.3713      
# span 11 =     -0.611,      6.257      
# span 12 =     -0.886,      9.075      
# span 13 =    11.6975,    25.1880      
# span 14 = 0.0000e+00, 0.0000e+00      
# interval = seconds: 0.25
# start_time = Jul 23 2018 13:37:18 [Instrument's time stamp, header]
# bad_flag = -9.990e-29
# <Sensors count="9" >
#   <sensor Channel="1" >
#     <!-- Count, Temperature -->
#     <TemperatureSensor SensorID="58" >
#       <SerialNumber>7809</SerialNumber>
#       <CalibrationDate>09-Mar-18</CalibrationDate>
#       <A0>1.21093245e-003</A0>
#       <A1>2.84356597e-004</A1>
#       <A2>-1.94507398e-006</A2>
#       <A3>2.12806664e-007</A3>
#       <Slope>1.00000000</Slope>
#       <Offset>0.0000</Offset>
#     </TemperatureSensor>
#   </sensor>
#   <sensor Channel="2" >
#     <!-- Frequency 0, Conductivity -->
#     <ConductivitySensor SensorID="3" >
#       <SerialNumber>7809</SerialNumber>
#       <CalibrationDate>09-Mar-18</CalibrationDate>
#       <UseG_J>1</UseG_J>
#       <!-- Cell const and series R are applicable only for wide range sensors. -->
#       <SeriesR>0.0000</SeriesR>
#       <CellConst>2000.0000</CellConst>
#       <ConductivityType>0</ConductivityType>
#       <Coefficients equation="0" >
#         <A>0.00000000e+000</A>
#         <B>0.00000000e+000</B>
#         <C>0.00000000e+000</C>
#         <D>0.00000000e+000</D>
#         <M>0.0</M>
#         <CPcor>-9.57000000e-008</CPcor>
#       </Coefficients>
#       <Coefficients equation="1" >
#         <G>-1.00672082e+000</G>
#         <H>1.26906489e-001</H>
#         <I>-1.40584351e-004</I>
#         <J>2.47837121e-005</J>
#         <CPcor>-9.57000000e-008</CPcor>
#         <CTcor>3.2500e-006</CTcor>
#         <!-- WBOTC not applicable unless ConductivityType = 1. -->
#         <WBOTC>0.00000000e+000</WBOTC>
#       </Coefficients>
#       <Slope>1.00000000</Slope>
#       <Offset>0.00000</Offset>
#     </ConductivitySensor>
#   </sensor>
#   <sensor Channel="3" >
#     <!-- Count, Pressure, Strain Gauge -->
#     <PressureSensor SensorID="46" >
#       <SerialNumber>7809</SerialNumber>
#       <CalibrationDate>07-Mar-18</CalibrationDate>
#       <PA0>-4.08176359e-002</PA0>
#       <PA1>4.85188419e-004</PA1>
#       <PA2>-3.51168169e-012</PA2>
#       <PTEMPA0>-5.37806900e+001</PTEMPA0>
#       <PTEMPA1>5.36620721e+001</PTEMPA1>
#       <PTEMPA2>4.87214332e-002</PTEMPA2>
#       <PTCA0>5.25213435e+005</PTCA0>
#       <PTCA1>1.79532409e+000</PTCA1>
#       <PTCA2>-2.84353509e-001</PTCA2>
#       <PTCB0>2.51668750e+001</PTCB0>
#       <PTCB1>3.75000000e-004</PTCB1>
#       <PTCB2>0.00000000e+000</PTCB2>
#       <Offset>0.000000</Offset>
#     </PressureSensor>
#   </sensor>
#   <sensor Channel="4" >
#     <!-- A/D voltage 0, pH -->
#     <pH_Sensor SensorID="43" >
#       <SerialNumber>0363</SerialNumber>
#       <CalibrationDate>16-Mar-18</CalibrationDate>
#       <Slope>4.6194</Slope>
#       <Offset>2.5947</Offset>
#     </pH_Sensor>
#   </sensor>
#   <sensor Channel="5" >
#     <!-- A/D voltage 1, Oxidation Reduction Potential -->
#     <OxidationReductionPotentialSensor SensorID="41" >
#       <SerialNumber>0363</SerialNumber>
#       <CalibrationDate>16-Mar-18</CalibrationDate>
#       <B>2.499480</B>
#       <M>-0.496195</M>
#       <Offset>0.0</Offset>
#     </OxidationReductionPotentialSensor>
#   </sensor>
#   <sensor Channel="6" >
#     <!-- A/D voltage 2, Oxygen, SBE 43 -->
#     <OxygenSensor SensorID="38" >
#       <SerialNumber>0434</SerialNumber>
#       <CalibrationDate>13-Mar-18</CalibrationDate>
#       <Use2007Equation>1</Use2007Equation>
#       <CalibrationCoefficients equation="0" >
#         <!-- Coefficients for Owens-Millard equation. -->
#         <Boc>0.0000</Boc>
#         <Soc>0.0000e+000</Soc>
#         <offset>0.0000</offset>
#         <Pcor>0.00e+000</Pcor>
#         <Tcor>0.0000</Tcor>
#         <Tau>0.0</Tau>
#       </CalibrationCoefficients>
#       <CalibrationCoefficients equation="1" >
#         <!-- Coefficients for Sea-Bird equation - SBE calibration in 2007 and later. -->
#         <Soc>4.5718e-001</Soc>
#         <offset>-0.6113</offset>
#         <A>-4.0649e-003</A>
#         <B> 2.0945e-004</B>
#         <C>-3.3182e-006</C>
#         <D0> 2.5826e+000</D0>
#         <D1> 1.92634e-004</D1>
#         <D2>-4.64803e-002</D2>
#         <E> 3.6000e-002</E>
#         <Tau20> 1.2200</Tau20>
#         <H1>-3.3000e-002</H1>
#         <H2> 5.0000e+003</H2>
#         <H3> 1.4500e+003</H3>
#       </CalibrationCoefficients>
#     </OxygenSensor>
#   </sensor>
#   <sensor Channel="7" >
#     <!-- A/D voltage 3, PAR/Logarithmic, Satlantic -->
#     <PARLog_SatlanticSensor SensorID="76" >
#       <SerialNumber>1122</SerialNumber>
#       <CalibrationDate>22-Jun-2017</CalibrationDate>
#       <a0>9.6090e-001</a0>
#       <a1>8.0780e-001</a1>
#       <Im>1.3589e+000</Im>
#       <Multiplier>1.0000e+000</Multiplier>
#     </PARLog_SatlanticSensor>
#   </sensor>
#   <sensor Channel="8" >
#     <!-- A/D voltage 4, Fluorometer, WET Labs ECO-AFL/FL -->
#     <FluoroWetlabECO_AFL_FL_Sensor SensorID="20" >
#       <SerialNumber>FLNTURT-2496</SerialNumber>
#       <CalibrationDate>25-Jan-2017</CalibrationDate>
#       <ScaleFactor>5.30000000e+001</ScaleFactor>
#       <!-- Dark output -->
#       <Vblank>0.0560</Vblank>
#     </FluoroWetlabECO_AFL_FL_Sensor>
#   </sensor>
#   <sensor Channel="9" >
#     <!-- A/D voltage 5, Turbidity Meter, WET Labs, ECO-NTU -->
#     <TurbidityMeter SensorID="67" >
#       <SerialNumber>FLNTURT-2496</SerialNumber>
#       <CalibrationDate>25-Jan-2017</CalibrationDate>
#       <ScaleFactor>176.000000</ScaleFactor>
#       <!-- Dark output -->
#       <DarkVoltage>0.072000</DarkVoltage>
#     </TurbidityMeter>
#   </sensor>
# </Sensors>
# datcnv_date = Jul 23 2018 15:39:17, 7.26.7.114 [datcnv_vars = 14]
# datcnv_in = C:\DATA\072318_fcr50.hex C:\DATA\SBE19plusV2_7809.xmlcon
# datcnv_skipover = 0
# datcnv_ox_hysteresis_correction = yes
# datcnv_ox_tau_correction = yes
# filter_date = Jul 23 2018 15:39:39, 7.26.7.114
# filter_in = C:\DATA\072318_fcr50.cnv
# filter_low_pass_tc_A = 0.030
# filter_low_pass_tc_B = 0.150
# filter_low_pass_A_vars = prdM prdE tv290C
# filter_low_pass_B_vars = depFM dz/dtM sbeox0Mg/L sbeox0PS specc c0uS/cm flECO-AFL ph orp par/sat/log turbWETntu0
# alignctd_date = Jul 23 2018 15:40:00, 7.26.7.114
# alignctd_in = C:\DATA\072318_fcr50.cnv
# alignctd_adv = dz/dtM 1.000, sbeox0Mg/L 1.000, sbeox0PS 1.000, specc 1.000, c0uS/cm 1.000, flECO-AFL 1.000, ph 1.000, orp 1.000, turbWETntu0 1.000                                                                                 
# file_type = ascii
*END*
     -0.622 -4.313e-20     9.0348     98.816      1.961   1.754174    -0.1684      6.201   425.3230 5.8049e+01     0.0346     -0.610     -0.885    19.7183 0.0000e+00
     -0.622 -3.921e-21     9.0356     98.825      2.009   1.797161    -0.1759      6.201   423.2696 5.4325e+01     0.0351     -0.610     -0.885    19.7184 0.0000e+00
     -0.623 -3.565e-22     9.0362     98.832      2.028   1.814458    -0.1837      6.201   421.4702 5.0222e+01     0.0134     -0.610     -0.885    19.7184 0.0000e+00
     -0.623 -3.241e-23     9.0366     98.837      1.982   1.773053    -0.1887      6.201   420.3452 4.7137e+01    -0.0749     -0.610     -0.885    19.7182 0.0000e+00
     -0.623 -2.946e-24     9.0358     98.827      1.946   1.740454    -0.1905      6.201   418.0986 4.6314e+01    -0.2089     -0.611     -0.885    19.7183 0.0000e+00
     -0.623 -2.678e-25     9.0358     98.827      1.942   1.737386    -0.1872      6.202   413.1496 4.7259e+01    -0.2636     -0.611     -0.886    19.7184 0.0000e+00
     -0.623 -2.435e-26     9.0380     98.852      1.941   1.735964    -0.1863      6.204   407.9151 4.9922e+01    -0.2171     -0.611     -0.886    19.7182 0.0000e+00
     -0.623 -2.213e-27     9.0385     98.858      1.927   1.723256    -0.1884      6.206   404.3666 5.3117e+01    -0.1657     -0.611     -0.885    19.7181 0.0000e+00
     -0.623 -2.012e-28     9.0364     98.833      1.912   1.710570    -0.1850      6.206   404.0591 5.4311e+01    -0.1005     -0.611     -0.886    19.7182 0.0000e+00
     -0.623 -1.829e-29     9.0351     98.820      1.911   1.709408    -0.1819      6.205   406.6061 5.4400e+01    -0.0388     -0.611     -0.885    19.7183 0.0000e+00
     -0.623 -1.663e-30     9.0354     98.823      1.911   1.709209    -0.1785      6.204   408.5766 5.3395e+01    -0.0302     -0.611     -0.885    19.7182 0.0000e+00
     -0.623 -1.512e-31     9.0353     98.821      1.910   1.708161    -0.1720      6.203   408.0080 5.1324e+01    -0.0882     -0.611     -0.886    19.7181 0.0000e+00
     -0.623 -1.374e-32     9.0351     98.819      1.897   1.696735    -0.1766      6.202   406.7006 5.1351e+01    -0.1911     -0.611     -0.885    19.7179 0.0000e+00
     -0.623 -1.250e-33     9.0359     98.828      1.898   1.697888    -0.1782      6.202   407.7399 5.2874e+01    -0.2356     -0.611     -0.886    19.7179 0.0000e+00
     -0.623 -1.136e-34     9.0365     98.835      1.925   1.722102    -0.1643      6.201   409.3889 5.2797e+01    -0.2296     -0.611     -0.886    19.7180 0.0000e+00
     -0.623 -1.031e-35     9.0367     98.837      1.941   1.735843    -0.1649      6.199   403.7529 5.0976e+01    -0.1800     -0.611     -0.886    19.7179 0.0000e+00
     -0.623 -7.311e-37     9.0378     98.849      1.942   1.737208    -0.1763      6.197   390.0140 4.9189e+01    -0.0635     -0.611     -0.886    19.7179 0.0000e+00
     -0.623 2.1959e-36     9.0391     98.862      1.944   1.738605    -0.1734      6.199   379.6451 4.9109e+01    -0.0107     -0.610     -0.885    19.7179 0.0000e+00
     -0.623 2.5086e-35     9.0394     98.866      1.960   1.752728    -0.1762      6.201   376.0389 4.9850e+01    -0.0299     -0.611     -0.886    19.7179 0.0000e+00
     -0.623 2.7603e-34     9.0385     98.857      1.992   1.781136    -0.1825      6.201   374.9759 5.0010e+01    -0.0515     -0.610     -0.885    19.7178 0.0000e+00
     -0.623 3.0363e-33     9.0377     98.847      2.045   1.828422    -0.1763      6.202   375.3111 5.0038e+01    -0.0587     -0.611     -0.886    19.7178 0.0000e+00
     -0.623 3.3400e-32     9.0377     98.847      2.103   1.880538    -0.1744      6.202   376.5640 4.9917e+01    -0.0247     -0.611     -0.886    19.7178 0.0000e+00
     -0.623 3.6740e-31     9.0378     98.849      2.129   1.903936    -0.1868      6.202   378.1650 4.9159e+01    -0.0071     -0.611     -0.886    19.7178 0.0000e+00
     -0.623 4.0414e-30     9.0370     98.840      2.148   1.921074    -0.1973      6.203   378.9236 4.8551e+01    -0.0295     -0.610     -0.885    19.7179 0.0000e+00
     -0.623 4.4455e-29     9.0364     98.833      2.192   1.960926    -0.1914      6.205   378.5079 4.8913e+01    -0.0201     -0.611     -0.886    19.7177 0.0000e+00
     -0.623 4.8901e-28     9.0370     98.839      2.242   2.005281    -0.1797      6.205   377.8714 5.0640e+01     0.0147     -0.610     -0.885    19.7177 0.0000e+00
     -0.623 5.3791e-27     9.0370     98.839      2.251   2.013459    -0.1747      6.205   377.7667 5.4169e+01     0.0257     -0.610     -0.885    19.7178 0.0000e+00
     -0.623 5.9170e-26     9.0364     98.833      2.232   1.996383    -0.1775      6.205   377.9305 5.8845e+01     0.0217     -0.611     -0.886    19.7178 0.0000e+00
     -0.623 6.5087e-25     9.0363     98.832      2.224   1.989065    -0.1773      6.205   378.5609 6.2667e+01     0.0568     -0.611     -0.886    19.7176 0.0000e+00
     -0.623 7.1595e-24     9.0370     98.838      2.223   1.988399    -0.1716      6.206   379.6239 6.4467e+01     0.1451     -0.611     -0.886    19.7175 0.0000e+00
     -0.623 7.8755e-23     9.0381     98.851      2.223   1.988329    -0.1730      6.207   379.8564 6.5661e+01     0.2049     -0.611     -0.886    19.7176 0.0000e+00
     -0.623 8.6630e-22     9.0383     98.854      2.223   1.988209    -0.1756      6.209   380.0823 6.6386e+01     0.1996     -0.610     -0.885    19.7175 0.0000e+00
     -0.623 9.5294e-21     9.0375     98.844      2.221   1.986950    -0.1758      6.209   381.1513 6.5990e+01     0.2030     -0.610     -0.885    19.7175 0.0000e+00
     -0.623 1.0482e-19     9.0369     98.838      2.206   1.973113    -0.1845      6.209   382.3700 6.5854e+01     0.2460     -0.610     -0.885    19.7176 0.0000e+00
     -0.623 1.1531e-18     9.0374     98.843      2.178   1.947736    -0.1887      6.209   383.9756 6.6101e+01     0.2609     -0.611     -0.886    19.7176 0.0000e+00
     -0.623 1.2684e-17     9.0377     98.846      2.162   1.933796    -0.1811      6.209   384.8193 6.6562e+01     0.2307     -0.611     -0.886    19.7175 0.0000e+00
     -0.623 1.3952e-16     9.0372     98.841      2.160   1.931396    -0.1761      6.210   387.7532 6.6959e+01     0.1560     -0.611     -0.886    19.7174 0.0000e+00
     -0.623 1.5347e-15     9.0371     98.841      2.145   1.918707    -0.1732      6.211   395.8749 6.6444e+01     0.0291     -0.611     -0.886    19.7175 0.0000e+00
     -0.623 1.6882e-14     9.0375     98.844      2.132   1.907209    -0.1742      6.211   399.6462 6.6382e+01    -0.0530     -0.610     -0.885    19.7174 0.0000e+00
     -0.623 1.8570e-13     9.0388     98.859      2.146   1.919205    -0.1777      6.211   394.6338 6.7461e+01    -0.0420     -0.611     -0.886    19.7174 0.0000e+00
     -0.622 2.0427e-12     9.0388     98.858      2.166   1.936929    -0.1797      6.211   389.3888 6.8575e+01    -0.0215     -0.610     -0.885    19.7174 0.0000e+00
     -0.622 2.2470e-11     9.0360     98.828      2.160   1.931259    -0.1890      6.211   392.0683 7.0188e+01    -0.0798     -0.610     -0.886    19.7173 0.0000e+00
     -0.622 2.4717e-10     9.0344     98.809      2.140   1.914066    -0.1985      6.210   399.7575 7.0765e+01    -0.1979     -0.611     -0.885    19.7172 0.0000e+00
     -0.622 2.7188e-09     9.0352     98.819      2.146   1.919293    -0.1937      6.209   401.1371 6.6173e+01    -0.2593     -0.610     -0.884    19.7173 0.0000e+00
     -0.622 2.9907e-08     9.0363     98.831      2.159   1.931033    -0.1767      6.210   397.7360 5.6676e+01    -0.2426     -0.610     -0.885    19.7172 0.0000e+00
     -0.622 3.2898e-07     9.0369     98.837      2.157   1.929187    -0.1672      6.211   395.9757 4.6904e+01    -0.2088     -0.610     -0.884    19.7173 0.0000e+00
     -0.622      0.000     9.0375     98.844      2.121   1.896980    -0.1797      6.212   395.9427 4.0423e+01    -0.1864     -0.611     -0.885    19.7170 0.0000e+00
     -0.622      0.000     9.0373     98.842      2.078   1.858705    -0.1899      6.213   396.1332 3.7270e+01    -0.1857     -0.610     -0.886    19.7174 0.0000e+00
     -0.622      0.000     9.0364     98.835      2.348   2.100568    -0.1814      6.218   393.6332 3.6275e+01    -0.1999     -0.610     -0.885    19.7168 0.0000e+00
     -0.622      0.005     9.0338     98.838      5.729   5.138402    -0.1779      6.263   375.5232 3.6923e+01    -0.2052     -0.610     -0.884    19.7175 0.0000e+00
     -0.622      0.023     9.0041     98.853     18.002  16.260981    -0.1830      6.525   336.1682 3.9253e+01    -0.1896     -0.610     -0.884    19.7160 0.0000e+00
     -0.622      0.063     8.8938     98.884     33.382  30.532609    -0.1703      7.090   301.3581 4.3788e+01    -0.1632     -0.610     -0.884    19.7185 0.0000e+00
     -0.620      0.121     8.7070     98.933     39.060  36.454639    -0.0705      7.650   287.4363 4.9616e+01    -0.0092     -0.608     -0.883    19.7144 0.0000e+00
     -0.605      0.185     8.5242     98.986     37.870  36.190415     0.9504      7.952   283.9939 5.5636e+01     1.8864     -0.610     -0.885    19.7209 0.0000e+00
     -0.548      0.241     8.3962     99.072     36.794  35.788206     2.8176      8.077   282.6230 6.1918e+01     5.4223     -0.560     -0.811    19.7120 0.0000e+00
     -0.445      0.282     8.3246     99.246     36.118  35.530930     3.8404      8.127   281.6156 6.7147e+01     7.3729     -0.437     -0.633    20.3152 0.0000e+00
     -0.332      0.304     8.2982     99.531     35.713  35.367073     3.9711      8.134   281.1055 7.0279e+01     7.4653     -0.316     -0.460    21.7167 0.0000e+00
     -0.240      0.303     8.3027     99.925     35.481  35.268347     4.3512      8.120   280.5857 7.2187e+01     6.1734     -0.223     -0.324    22.9247 0.0000e+00
     -0.174      0.274     8.3282    100.423     35.366  35.226712     5.0365      8.096   279.1170 7.3091e+01     3.7459     -0.168     -0.243    23.7372 0.0000e+00
     -0.117      0.224     8.3672    101.003     35.343  35.244891     5.4096      8.072   277.1131 6.8123e+01     2.4079     -0.117     -0.170    24.2709 0.0000e+00
     -0.061      0.164     8.4131    101.593     35.319  35.234134     5.4445      8.061   275.5441 5.5849e+01     2.2629     -0.055     -0.079    24.5527 0.0000e+00
     -0.015      0.104     8.4613    102.109     35.269  35.160180     5.4585      8.059   275.0305 4.5669e+01     2.2684     -0.010     -0.014    24.7236 0.0000e+00
      0.012      0.051     8.5050    102.505     35.271  35.112930     5.5046      8.058   275.4635 4.3092e+01     2.2903      0.021      0.029    24.8092 0.0000e+00
      0.012      0.007     8.5340    102.770     35.297  35.107400     5.5795      8.058   276.0478 4.6460e+01     2.2833      0.024      0.035    24.8650 0.0000e+00
     -0.013     -0.025     8.5509    102.975     35.282  35.093267     5.6205      8.061   276.5026 5.2254e+01     2.2753     -0.011     -0.016    24.8968 0.0000e+00
     -0.045     -0.042     8.5989    103.600     35.240  35.069096     5.6410      8.070   276.9185 5.6382e+01     2.2849     -0.051     -0.074    24.8594 0.0000e+00
     -0.063     -0.043     8.7033    104.907     35.222  35.069256     5.7729      8.080   276.7743 5.7624e+01     2.3087     -0.068     -0.097    24.7559 0.0000e+00
     -0.067     -0.032     8.7938    106.038     35.234  35.095235     5.9928      8.090   276.0493 5.7339e+01     2.2885     -0.067     -0.097    24.7056 0.0000e+00
