* Sea-Bird SBE19plus  Data File:
* FileName = C:\DATA\MSN2_CTD_CASTS_072419\072419_bvr50_b_0002.hex
* Software version 2.8.0.119 SB_Terminal.dll
* Temperature SN = 7809
* Conductivity SN = 7809
* System UpLoad Time = Jul 24 2019 18:33:01
* <ApplicationData>
* <Seaterm232>
* <SoftwareVersion>2.8.0.119</SoftwareVersion>
* <BuildDate>07-Nov-2018</BuildDate>
* </Seaterm232>
* </ApplicationData>
* cast   2 24 Jul 2019 18:21:38 samples 1573 to 2767, avg = 1, stop = mag switch
# nquan = 16
# nvalues = 1064                        
# units = specified
# name 0 = depFM: Depth [fresh water, m]
# name 1 = dz/dtM: Descent Rate [m/s]
# name 2 = sbeox0Mg/L: Oxygen, SBE 43 [mg/l]
# name 3 = sbeox0PS: Oxygen, SBE 43 [% saturation]
# name 4 = specc: Specific Conductance [uS/cm]
# name 5 = c0uS/cm: Conductivity [uS/cm]
# name 6 = flECO-AFL: Fluorescence, WET Labs ECO-AFL/FL [mg/m^3]
# name 7 = ph: pH
# name 8 = orp: Oxidation Reduction Potential [mV]
# name 9 = par/sat/log: PAR/Logarithmic, Satlantic
# name 10 = turbWETntu0: Turbidity, WET Labs ECO [NTU]
# name 11 = prdM: Pressure, Strain Gauge [db]
# name 12 = prdE: Pressure, Strain Gauge [psi]
# name 13 = tv290C: Temperature [ITS-90, deg C]
# name 14 = density00: Density [density, kg/m^3]
# name 15 = flag:  0.000e+00
# span 0 =     -0.676,     10.568       
# span 1 =     -0.027,      0.144       
# span 2 =    -0.1936,     8.1674       
# span 3 =     -1.924,    104.410       
# span 4 =      0.656,    291.403       
# span 5 =   0.703640, 195.121890       
# span 6 =    -0.5384,    26.3282       
# span 7 =      0.333,      8.381       
# span 8 = -1240.7455,   604.0399       
# span 9 = 1.2345e-01, 1.0176e+03       
# span 10 =    -4.1264,    17.1984      
# span 11 =     -0.664,     10.364      
# span 12 =     -0.963,     15.031      
# span 13 =     8.4615,    28.5982      
# span 14 =   996.0704,   999.9889      
# span 15 = 0.0000e+00, 0.0000e+00      
# interval = seconds: 0.25
# start_time = Jul 24 2019 18:21:38 [Instrument's time stamp, header]
# bad_flag = -9.990e-29
# <Sensors count="9" >
#   <sensor Channel="1" >
#     <!-- Count, Temperature -->
#     <TemperatureSensor SensorID="58" >
#       <SerialNumber>7809</SerialNumber>
#       <CalibrationDate>24-Mar-19</CalibrationDate>
#       <A0>1.21792325e-003</A0>
#       <A1>2.81669265e-004</A1>
#       <A2>-1.60333336e-006</A2>
#       <A3>1.98414625e-007</A3>
#       <Slope>1.00000000</Slope>
#       <Offset>0.0000</Offset>
#     </TemperatureSensor>
#   </sensor>
#   <sensor Channel="2" >
#     <!-- Frequency 0, Conductivity -->
#     <ConductivitySensor SensorID="3" >
#       <SerialNumber>7809</SerialNumber>
#       <CalibrationDate>24-Mar-19</CalibrationDate>
#       <UseG_J>1</UseG_J>
#       <!-- Cell const and series R are applicable only for wide range sensors. -->
#       <SeriesR>0.0000</SeriesR>
#       <CellConst>2000.0000</CellConst>
#       <ConductivityType>0</ConductivityType>
#       <Coefficients equation="0" >
#         <A>0.00000000e+000</A>
#         <B>0.00000000e+000</B>
#         <C>0.00000000e+000</C>
#         <D>0.00000000e+000</D>
#         <M>0.0</M>
#         <CPcor>-9.57000000e-008</CPcor>
#       </Coefficients>
#       <Coefficients equation="1" >
#         <G>-1.00589325e+000</G>
#         <H>1.26816302e-001</H>
#         <I>-1.51560448e-004</I>
#         <J>2.67137274e-005</J>
#         <CPcor>-9.57000000e-008</CPcor>
#         <CTcor>3.2500e-006</CTcor>
#         <!-- WBOTC not applicable unless ConductivityType = 1. -->
#         <WBOTC>0.00000000e+000</WBOTC>
#       </Coefficients>
#       <Slope>1.00000000</Slope>
#       <Offset>0.00000</Offset>
#     </ConductivitySensor>
#   </sensor>
#   <sensor Channel="3" >
#     <!-- Count, Pressure, Strain Gauge -->
#     <PressureSensor SensorID="46" >
#       <SerialNumber>7809</SerialNumber>
#       <CalibrationDate>11-Mar-19</CalibrationDate>
#       <PA0>4.56561833e-002</PA0>
#       <PA1>4.85095118e-004</PA1>
#       <PA2>-2.88327090e-012</PA2>
#       <PTEMPA0>-5.48784562e+001</PTEMPA0>
#       <PTEMPA1>5.53756816e+001</PTEMPA1>
#       <PTEMPA2>-5.86727098e-001</PTEMPA2>
#       <PTCA0>5.25246745e+005</PTCA0>
#       <PTCA1>1.22304214e+001</PTCA1>
#       <PTCA2>-3.56745036e-001</PTCA2>
#       <PTCB0>2.51668750e+001</PTCB0>
#       <PTCB1>3.75000000e-004</PTCB1>
#       <PTCB2>0.00000000e+000</PTCB2>
#       <Offset>0.000000</Offset>
#     </PressureSensor>
#   </sensor>
#   <sensor Channel="4" >
#     <!-- A/D voltage 0, Oxygen, SBE 43 -->
#     <OxygenSensor SensorID="38" >
#       <SerialNumber>0434</SerialNumber>
#       <CalibrationDate>13-Apr-19</CalibrationDate>
#       <Use2007Equation>1</Use2007Equation>
#       <CalibrationCoefficients equation="0" >
#         <!-- Coefficients for Owens-Millard equation. -->
#         <Boc>0.0000</Boc>
#         <Soc>0.0000e+000</Soc>
#         <offset>0.0000</offset>
#         <Pcor>0.00e+000</Pcor>
#         <Tcor>0.0000</Tcor>
#         <Tau>0.0</Tau>
#       </CalibrationCoefficients>
#       <CalibrationCoefficients equation="1" >
#         <!-- Coefficients for Sea-Bird equation - SBE calibration in 2007 and later. -->
#         <Soc>4.2007e-001</Soc>
#         <offset>-0.6109</offset>
#         <A>-4.3656e-003</A>
#         <B> 1.7017e-004</B>
#         <C>-2.5341e-006</C>
#         <D0> 2.5826e+000</D0>
#         <D1> 1.92634e-004</D1>
#         <D2>-4.64803e-002</D2>
#         <E> 3.6000e-002</E>
#         <Tau20> 1.1800</Tau20>
#         <H1>-3.3000e-002</H1>
#         <H2> 5.0000e+003</H2>
#         <H3> 1.4500e+003</H3>
#       </CalibrationCoefficients>
#     </OxygenSensor>
#   </sensor>
#   <sensor Channel="5" >
#     <!-- A/D voltage 1, PAR/Logarithmic, Satlantic -->
#     <PARLog_SatlanticSensor SensorID="76" >
#       <SerialNumber>1122</SerialNumber>
#       <CalibrationDate>08-May-2019</CalibrationDate>
#       <a0>9.7456e-001</a0>
#       <a1>8.1640e-001</a1>
#       <Im>1.3589e+000</Im>
#       <Multiplier>1.0000e+000</Multiplier>
#     </PARLog_SatlanticSensor>
#   </sensor>
#   <sensor Channel="6" >
#     <!-- A/D voltage 2, pH -->
#     <pH_Sensor SensorID="43" >
#       <SerialNumber>0363</SerialNumber>
#       <CalibrationDate>15-Apr-19</CalibrationDate>
#       <Slope>4.5952</Slope>
#       <Offset>2.5370</Offset>
#     </pH_Sensor>
#   </sensor>
#   <sensor Channel="7" >
#     <!-- A/D voltage 3, Oxidation Reduction Potential -->
#     <OxidationReductionPotentialSensor SensorID="41" >
#       <SerialNumber>0363</SerialNumber>
#       <CalibrationDate>15-Apr-19</CalibrationDate>
#       <B>2.499480</B>
#       <M>-0.496195</M>
#       <Offset>0.0</Offset>
#     </OxidationReductionPotentialSensor>
#   </sensor>
#   <sensor Channel="8" >
#     <!-- A/D voltage 4, Fluorometer, WET Labs ECO-AFL/FL -->
#     <FluoroWetlabECO_AFL_FL_Sensor SensorID="20" >
#       <SerialNumber>FLNTURT-2496</SerialNumber>
#       <CalibrationDate>08-May-2019</CalibrationDate>
#       <ScaleFactor>5.00000000e+001</ScaleFactor>
#       <!-- Dark output -->
#       <Vblank>0.0550</Vblank>
#     </FluoroWetlabECO_AFL_FL_Sensor>
#   </sensor>
#   <sensor Channel="9" >
#     <!-- A/D voltage 5, Turbidity Meter, WET Labs, ECO-NTU -->
#     <TurbidityMeter SensorID="67" >
#       <SerialNumber>FLNTURT-2496</SerialNumber>
#       <CalibrationDate>08-May-2019</CalibrationDate>
#       <ScaleFactor>189.000000</ScaleFactor>
#       <!-- Dark output -->
#       <DarkVoltage>0.071000</DarkVoltage>
#     </TurbidityMeter>
#   </sensor>
# </Sensors>
# datcnv_date = Jul 24 2019 18:34:29, 7.26.7.129 [datcnv_vars = 15]
# datcnv_in = C:\DATA\MSN2_CTD_CASTS_072419\072419_bvr50_b.hex C:\DATA\SBE19plusV2_7809.xmlcon
# datcnv_skipover = 0
# datcnv_ox_hysteresis_correction = yes
# datcnv_ox_tau_correction = yes
# filter_date = Jul 24 2019 18:34:48, 7.26.7.129
# filter_in = C:\DATA\072419_bvr50_b.cnv
# filter_low_pass_tc_A = 0.030
# filter_low_pass_tc_B = 0.150
# filter_low_pass_A_vars = prdM prdE tv290C density00
# filter_low_pass_B_vars = depFM dz/dtM sbeox0Mg/L sbeox0PS specc c0uS/cm flECO-AFL ph orp par/sat/log turbWETntu0
# alignctd_date = Jul 24 2019 18:35:06, 7.26.7.129
# alignctd_in = C:\DATA\072419_bvr50_b.cnv
# alignctd_adv = dz/dtM 1.000, sbeox0Mg/L 1.000, sbeox0PS 1.000, specc 1.000, c0uS/cm 1.000, flECO-AFL 1.000, ph 1.000, orp 1.000, turbWETntu0 1.000                                                                                 
# file_type = ascii
*END*
     -0.675 -8.691e-16     7.6821     99.174      0.705   0.755627    -0.1124      6.731 -1240.7455 1.0008e+03    -0.2814     -0.662     -0.961    28.5982   996.0704 0.0000e+00
     -0.675 -9.560e-15     7.6840     99.194      0.716   0.767132    -0.1361      6.732 -1240.7455 1.0038e+03    -0.3221     -0.662     -0.960    28.5960   996.0711 0.0000e+00
     -0.675 -1.052e-13     7.6851     99.204      0.705   0.755456    -0.2307      6.732 -1240.7455 1.0020e+03    -0.4601     -0.663     -0.961    28.5938   996.0717 0.0000e+00
     -0.675 -1.157e-12     7.6848     99.196      0.691   0.741175    -0.3888      6.732 -1240.7455 9.9346e+02    -0.7373     -0.662     -0.962    28.5920   996.0723 0.0000e+00
     -0.676 -1.272e-11     7.6854     99.200      0.673   0.721183    -0.4705      6.735 -1240.7455 9.8847e+02    -0.9208     -0.663     -0.961    28.5900   996.0730 0.0000e+00
     -0.676 -1.400e-10     7.6875     99.222      0.657   0.703799    -0.4813      6.736 -1240.7455 9.9142e+02    -0.9744     -0.663     -0.962    28.5880   996.0735 0.0000e+00
     -0.676 -1.540e-09     7.6889     99.237      0.672   0.721069    -0.4758      6.732 -1240.7455 9.9331e+02    -0.9269     -0.663     -0.961    28.5858   996.0741 0.0000e+00
     -0.676 -1.694e-08     7.6893     99.241      0.690   0.739919    -0.3523      6.730 -1240.7455 9.8901e+02    -0.4448     -0.663     -0.962    28.5832   996.0748 0.0000e+00
     -0.676 -1.863e-07     7.6897     99.243      0.692   0.741633    -0.1324      6.729 -1240.7455 9.8351e+02     0.3656     -0.663     -0.962    28.5806   996.0756 0.0000e+00
     -0.676 -1.863e-07     7.6898     99.242      0.692   0.741789    -0.0106      6.728 -1240.7455 9.7370e+02     0.8087     -0.663     -0.962    28.5784   996.0762 0.0000e+00
     -0.676 -1.693e-08     7.6912     99.258      0.692   0.741812     0.0108      6.728 -1240.7455 9.3630e+02     0.8498     -0.663     -0.962    28.5767   996.0767 0.0000e+00
     -0.676 -1.539e-09     7.6936     99.288      0.692   0.741903     0.0053      6.728 -1240.7455 7.3848e+02     0.6659     -0.663     -0.961    28.5753   996.0771 0.0000e+00
     -0.676 -1.400e-10     7.6935     99.284      0.693   0.742889    -0.0252      6.728 -1240.7455 4.0278e+02     0.3223     -0.663     -0.962    28.5737   996.0776 0.0000e+00
     -0.676 -1.272e-11     7.6916     99.257      0.703   0.753742    -0.0549      6.728 -1240.7455 2.0980e+02     0.1689     -0.663     -0.962    28.5726   996.0779 0.0000e+00
     -0.676 -1.157e-12     7.6913     99.251      0.696   0.746397    -0.0672      6.729 -1240.7455 1.7820e+02     0.1552     -0.663     -0.961    28.5716   996.0782 0.0000e+00
     -0.676 -1.052e-13     7.6921     99.258      0.669   0.717442    -0.0792      6.729 -1240.7455 1.7079e+02    -0.4666     -0.663     -0.962    28.5705   996.0785 0.0000e+00
     -0.676 -9.560e-15     7.6920     99.254      0.672   0.720440    -0.1047      6.729 -1240.7455 1.6980e+02    -1.6469     -0.663     -0.962    28.5696   996.0788 0.0000e+00
     -0.676 -8.668e-16     7.6918     99.248      0.671   0.719299    -0.1154      6.731 -1240.7455 1.7048e+02    -2.2845     -0.663     -0.962    28.5680   996.0791 0.0000e+00
     -0.676 -5.449e-17     7.6925     99.254      0.656   0.703640    -0.1125      6.732 -1240.7455 1.7024e+02    -2.3095     -0.663     -0.962    28.5662   996.0797 0.0000e+00
     -0.676 2.6245e-16     7.6928     99.257      0.672   0.721181    -0.2175      6.729 -1240.7455 1.6955e+02    -1.8507     -0.664     -0.963    28.5650   996.0801 0.0000e+00
     -0.676 2.9653e-15     7.6928     99.256      0.692   0.741313    -0.4229      6.727 -1240.7455 1.6772e+02    -0.9980     -0.663     -0.962    28.5631   996.0806 0.0000e+00
     -0.676 3.2625e-14     7.6943     99.270      0.707   0.756983    -0.5319      6.730 -1240.7455 1.6348e+02    -0.5526     -0.663     -0.962    28.5610   996.0811 0.0000e+00
     -0.676 3.5888e-13     7.6959     99.285      0.732   0.783933    -0.5384      6.732 -1240.7455 1.6146e+02    -0.5297     -0.663     -0.962    28.5593   996.0817 0.0000e+00
     -0.676 3.9477e-12     7.6973     99.298      0.760   0.813718    -0.5279      6.729 -1240.7455 1.6971e+02    -0.5578     -0.663     -0.962    28.5586   996.0820 0.0000e+00
     -0.676 4.3424e-11     7.6986     99.312      0.806   0.863682    -0.4216      6.724 -1240.7455 1.8727e+02    -0.5648     -0.663     -0.962    28.5585   996.0819 0.0000e+00
     -0.676 4.7767e-10     7.6999     99.324      0.941   1.007887    -0.2244      6.715 -1240.7453 1.9880e+02    -0.5160     -0.663     -0.962    28.5561   996.0827 0.0000e+00
     -0.676 5.2544e-09     7.7004     99.328      1.145   1.226743    -0.1202      6.686 -1240.7430 1.9377e+02    -0.5241     -0.663     -0.962    28.5518   996.0839 0.0000e+00
     -0.676 5.7798e-08     7.6995     99.315      1.266   1.355625    -0.1157      6.524 -1240.7182 1.8448e+02    -0.6301     -0.663     -0.961    28.5491   996.0847 0.0000e+00
     -0.676 6.3578e-07     7.6986     99.303      1.272   1.362351    -0.1087      5.255 -1240.4447 1.8647e+02    -1.5030     -0.663     -0.962    28.5471   996.0853 0.0000e+00
     -0.676      0.000     7.6993     99.311      1.221   1.308073    -0.0968      2.228 -1237.4370 1.9210e+02    -3.1799     -0.663     -0.961    28.5449   996.0859 0.0000e+00
     -0.676      0.000     7.7007     99.326      1.185   1.269588    -0.0931      0.333 -1204.3525 1.9017e+02    -4.1264     -0.664     -0.963    28.5435   996.0863 0.0000e+00
     -0.676      0.001     7.7017     99.332      1.252   1.340562    -0.0892      1.797  -840.4230 1.8598e+02    -4.0985     -0.663     -0.962    28.5432   996.0864 0.0000e+00
     -0.676      0.004     7.7086     99.347      1.493   1.595971     0.0880      4.128    34.2449 1.8913e+02    -3.0389     -0.663     -0.961    28.5424   996.0866 0.0000e+00
     -0.676      0.012     7.7286     99.387      2.842   3.027140     0.4370      5.503   604.0399 2.0156e+02    -1.1470     -0.663     -0.962    28.5421   996.0866 0.0000e+00
     -0.676      0.026     7.7531     99.420      7.229   7.682174     0.6279      6.366   419.8007 2.1265e+02    -0.1660     -0.663     -0.961    28.5400   996.0873 0.0000e+00
     -0.673      0.045     7.7665     99.425     14.874  15.795499     0.6272      6.984   202.0430 2.3396e+02    -0.0595     -0.663     -0.963    28.5411   996.0870 0.0000e+00
     -0.663      0.065     7.7688     99.413     22.515  23.907321     0.5409      7.417   204.9022 2.9746e+02     0.6324     -0.656     -0.952    28.5362   996.0884 0.0000e+00
     -0.639      0.085     7.7680     99.401     26.741  28.395045     0.4006      7.705   219.6558 3.7852e+02     1.8747     -0.630     -0.913    28.3908   996.1304 0.0000e+00
     -0.609      0.104     7.7682     99.406     27.803  29.523711     0.3271      7.902   226.5890 4.2163e+02     2.5736     -0.596     -0.865    28.1681   996.1951 0.0000e+00
     -0.577      0.121     7.7687     99.414     27.837  29.560089     0.3187      8.052   229.0205 4.4818e+02     2.9546     -0.566     -0.821    28.0861   996.2208 0.0000e+00
     -0.545      0.133     7.7689     99.415     27.812  29.532832     0.3252      8.164   238.9882 4.6745e+02     6.4815     -0.536     -0.777    28.0841   996.2241 0.0000e+00
     -0.511      0.141     7.7721     99.451     27.793  29.511391     0.4407      8.233   251.4312 5.0592e+02    13.0677     -0.501     -0.726    28.0853   996.2250 0.0000e+00
     -0.475      0.144     7.7800     99.552     27.774  29.491188     0.6571      8.259   259.3575 6.2019e+02    16.8137     -0.467     -0.678    28.0880   996.2244 0.0000e+00
     -0.435      0.139     7.7925     99.715     27.762  29.478907     0.7743      8.261   263.7561 7.1611e+02    17.1984     -0.428     -0.622    28.0889   996.2242 0.0000e+00
     -0.391      0.128     7.8076     99.909     27.772  29.489797     0.7826      8.256   266.4128 7.4473e+02    16.8673     -0.380     -0.553    28.0908   996.2239 0.0000e+00
     -0.352      0.109     7.8220    100.092     27.778  29.495970     0.8963      8.232   269.0229 7.5334e+02    12.9423     -0.340     -0.494    28.0829   996.2264 0.0000e+00
     -0.325      0.085     7.8347    100.249     27.774  29.490087     1.1255      8.191   270.7073 7.3000e+02     5.7248     -0.314     -0.455    28.0832   996.2265 0.0000e+00
     -0.310      0.059     7.8447    100.364     27.770  29.482117     1.2569      8.161   271.2915 6.1890e+02     1.7661     -0.302     -0.437    28.0875   996.2253 0.0000e+00
     -0.305      0.034     7.8467    100.376     27.756  29.463040     1.2711      8.154   273.1605 4.3650e+02     1.3562     -0.299     -0.434    28.0876   996.2252 0.0000e+00
     -0.303      0.018     7.8376    100.250     27.747  29.449775     1.2876      8.177   275.8399 3.1723e+02     1.0311     -0.297     -0.429    28.0874   996.2253 0.0000e+00
     -0.304      0.009     7.8204    100.025     27.747  29.448621     1.3272      8.224   278.1341 3.5680e+02     0.5229     -0.296     -0.429    28.0850   996.2259 0.0000e+00
     -0.307      0.006     7.7944     99.690     27.748  29.449084     1.3511      8.269   279.9060 4.3036e+02     0.2264     -0.302     -0.438    28.0772   996.2281 0.0000e+00
     -0.307      0.007     7.7479     99.090     27.755  29.455376     1.3513      8.303   281.1749 4.7105e+02     0.1659     -0.304     -0.441    28.0672   996.2309 0.0000e+00
     -0.302      0.011     7.6615     97.985     27.761  29.461248     1.3728      8.332   282.2908 5.7992e+02     0.1179     -0.294     -0.426    28.0617   996.2326 0.0000e+00
     -0.297      0.014     7.5247     96.236     27.757  29.456623     1.4203      8.357   283.5888 5.7804e+02     0.0394     -0.290     -0.419    28.0606   996.2329 0.0000e+00
     -0.294      0.014     7.3636     94.178     27.762  29.462911     1.4489      8.373   285.5985 5.0734e+02    -0.0281     -0.292     -0.423    28.0580   996.2336 0.0000e+00
     -0.288      0.011     7.2218     92.367     27.771  29.473823     1.4504      8.378   288.2639 6.1829e+02    -0.0430     -0.283     -0.411    28.0551   996.2345 0.0000e+00
     -0.281      0.007     7.1082     90.915     27.759  29.461663     1.4473      8.379   289.8323 7.3847e+02     0.4493     -0.272     -0.395    28.0551   996.2346 0.0000e+00
     -0.280      0.005     6.9983     89.511     27.741  29.442791     1.4461      8.379   289.9353 7.4721e+02     1.4333     -0.273     -0.396    28.0556   996.2344 0.0000e+00
     -0.285      0.005     6.8775     87.966     27.735  29.435982     1.4523      8.381   290.7131 7.2876e+02     1.9903     -0.281     -0.408    28.0568   996.2340 0.0000e+00
     -0.288      0.005     6.7599     86.463     27.740  29.442790     1.4620      8.381   292.1812 7.2893e+02     2.0388     -0.285     -0.413    28.0592   996.2333 0.0000e+00
     -0.285      0.006     6.6547     85.119     27.758  29.461659     1.4670      8.376   293.3185 6.8819e+02     1.9868     -0.280     -0.406    28.0596   996.2332 0.0000e+00
     -0.281      0.007     6.5530     83.819     27.768  29.473782     1.5135      8.366   294.1392 5.3759e+02     1.6899     -0.276     -0.400    28.0594   996.2333 0.0000e+00
