* Sea-Bird SBE19plus  Data File:
* FileName = C:\DATA\072419_bvr50_a_0001.hex
* Software version 2.8.0.119 SB_Terminal.dll
* Temperature SN = 7809
* Conductivity SN = 7809
* System UpLoad Time = Jul 24 2019 11:38:53
* <ApplicationData>
* <Seaterm232>
* <SoftwareVersion>2.8.0.119</SoftwareVersion>
* <BuildDate>07-Nov-2018</BuildDate>
* </Seaterm232>
* </ApplicationData>
* cast   1 24 Jul 2019 11:30:30 samples 1 to 1060, avg = 1, stop = mag switch
# nquan = 16
# nvalues = 957                         
# units = specified
# name 0 = depFM: Depth [fresh water, m]
# name 1 = dz/dtM: Descent Rate [m/s]
# name 2 = sbeox0Mg/L: Oxygen, SBE 43 [mg/l]
# name 3 = sbeox0PS: Oxygen, SBE 43 [% saturation]
# name 4 = specc: Specific Conductance [uS/cm]
# name 5 = c0uS/cm: Conductivity [uS/cm]
# name 6 = flECO-AFL: Fluorescence, WET Labs ECO-AFL/FL [mg/m^3]
# name 7 = ph: pH
# name 8 = orp: Oxidation Reduction Potential [mV]
# name 9 = par/sat/log: PAR/Logarithmic, Satlantic
# name 10 = turbWETntu0: Turbidity, WET Labs ECO [NTU]
# name 11 = prdM: Pressure, Strain Gauge [db]
# name 12 = prdE: Pressure, Strain Gauge [psi]
# name 13 = tv290C: Temperature [ITS-90, deg C]
# name 14 = density00: Density [density, kg/m^3]
# name 15 = flag:  0.000e+00
# span 0 =     -0.660,     10.052       
# span 1 =     -0.253,      0.282       
# span 2 =    -0.2013,     8.2681       
# span 3 =     -1.973,    102.051       
# span 4 =      1.316,    134.205       
# span 5 =   1.347131,  90.231195       
# span 6 =    -0.1349,    28.9255       
# span 7 =     -2.334,      8.544       
# span 8 = -1240.7455,   489.7942       
# span 9 = 1.2345e-01, 3.5328e+03       
# span 10 =    -2.0772,    64.6271      
# span 11 =     -0.649,      9.859      
# span 12 =     -0.940,     14.299      
# span 13 =     8.5903,    26.1699      
# span 14 =   996.7464,   999.9090      
# span 15 = 0.0000e+00, 0.0000e+00      
# interval = seconds: 0.25
# start_time = Jul 24 2019 11:30:30 [Instrument's time stamp, header]
# bad_flag = -9.990e-29
# <Sensors count="9" >
#   <sensor Channel="1" >
#     <!-- Count, Temperature -->
#     <TemperatureSensor SensorID="58" >
#       <SerialNumber>7809</SerialNumber>
#       <CalibrationDate>24-Mar-19</CalibrationDate>
#       <A0>1.21792325e-003</A0>
#       <A1>2.81669265e-004</A1>
#       <A2>-1.60333336e-006</A2>
#       <A3>1.98414625e-007</A3>
#       <Slope>1.00000000</Slope>
#       <Offset>0.0000</Offset>
#     </TemperatureSensor>
#   </sensor>
#   <sensor Channel="2" >
#     <!-- Frequency 0, Conductivity -->
#     <ConductivitySensor SensorID="3" >
#       <SerialNumber>7809</SerialNumber>
#       <CalibrationDate>24-Mar-19</CalibrationDate>
#       <UseG_J>1</UseG_J>
#       <!-- Cell const and series R are applicable only for wide range sensors. -->
#       <SeriesR>0.0000</SeriesR>
#       <CellConst>2000.0000</CellConst>
#       <ConductivityType>0</ConductivityType>
#       <Coefficients equation="0" >
#         <A>0.00000000e+000</A>
#         <B>0.00000000e+000</B>
#         <C>0.00000000e+000</C>
#         <D>0.00000000e+000</D>
#         <M>0.0</M>
#         <CPcor>-9.57000000e-008</CPcor>
#       </Coefficients>
#       <Coefficients equation="1" >
#         <G>-1.00589325e+000</G>
#         <H>1.26816302e-001</H>
#         <I>-1.51560448e-004</I>
#         <J>2.67137274e-005</J>
#         <CPcor>-9.57000000e-008</CPcor>
#         <CTcor>3.2500e-006</CTcor>
#         <!-- WBOTC not applicable unless ConductivityType = 1. -->
#         <WBOTC>0.00000000e+000</WBOTC>
#       </Coefficients>
#       <Slope>1.00000000</Slope>
#       <Offset>0.00000</Offset>
#     </ConductivitySensor>
#   </sensor>
#   <sensor Channel="3" >
#     <!-- Count, Pressure, Strain Gauge -->
#     <PressureSensor SensorID="46" >
#       <SerialNumber>7809</SerialNumber>
#       <CalibrationDate>11-Mar-19</CalibrationDate>
#       <PA0>4.56561833e-002</PA0>
#       <PA1>4.85095118e-004</PA1>
#       <PA2>-2.88327090e-012</PA2>
#       <PTEMPA0>-5.48784562e+001</PTEMPA0>
#       <PTEMPA1>5.53756816e+001</PTEMPA1>
#       <PTEMPA2>-5.86727098e-001</PTEMPA2>
#       <PTCA0>5.25246745e+005</PTCA0>
#       <PTCA1>1.22304214e+001</PTCA1>
#       <PTCA2>-3.56745036e-001</PTCA2>
#       <PTCB0>2.51668750e+001</PTCB0>
#       <PTCB1>3.75000000e-004</PTCB1>
#       <PTCB2>0.00000000e+000</PTCB2>
#       <Offset>0.000000</Offset>
#     </PressureSensor>
#   </sensor>
#   <sensor Channel="4" >
#     <!-- A/D voltage 0, Oxygen, SBE 43 -->
#     <OxygenSensor SensorID="38" >
#       <SerialNumber>0434</SerialNumber>
#       <CalibrationDate>13-Apr-19</CalibrationDate>
#       <Use2007Equation>1</Use2007Equation>
#       <CalibrationCoefficients equation="0" >
#         <!-- Coefficients for Owens-Millard equation. -->
#         <Boc>0.0000</Boc>
#         <Soc>0.0000e+000</Soc>
#         <offset>0.0000</offset>
#         <Pcor>0.00e+000</Pcor>
#         <Tcor>0.0000</Tcor>
#         <Tau>0.0</Tau>
#       </CalibrationCoefficients>
#       <CalibrationCoefficients equation="1" >
#         <!-- Coefficients for Sea-Bird equation - SBE calibration in 2007 and later. -->
#         <Soc>4.2007e-001</Soc>
#         <offset>-0.6109</offset>
#         <A>-4.3656e-003</A>
#         <B> 1.7017e-004</B>
#         <C>-2.5341e-006</C>
#         <D0> 2.5826e+000</D0>
#         <D1> 1.92634e-004</D1>
#         <D2>-4.64803e-002</D2>
#         <E> 3.6000e-002</E>
#         <Tau20> 1.1800</Tau20>
#         <H1>-3.3000e-002</H1>
#         <H2> 5.0000e+003</H2>
#         <H3> 1.4500e+003</H3>
#       </CalibrationCoefficients>
#     </OxygenSensor>
#   </sensor>
#   <sensor Channel="5" >
#     <!-- A/D voltage 1, PAR/Logarithmic, Satlantic -->
#     <PARLog_SatlanticSensor SensorID="76" >
#       <SerialNumber>1122</SerialNumber>
#       <CalibrationDate>08-May-2019</CalibrationDate>
#       <a0>9.7456e-001</a0>
#       <a1>8.1640e-001</a1>
#       <Im>1.3589e+000</Im>
#       <Multiplier>1.0000e+000</Multiplier>
#     </PARLog_SatlanticSensor>
#   </sensor>
#   <sensor Channel="6" >
#     <!-- A/D voltage 2, pH -->
#     <pH_Sensor SensorID="43" >
#       <SerialNumber>0363</SerialNumber>
#       <CalibrationDate>15-Apr-19</CalibrationDate>
#       <Slope>4.5952</Slope>
#       <Offset>2.5370</Offset>
#     </pH_Sensor>
#   </sensor>
#   <sensor Channel="7" >
#     <!-- A/D voltage 3, Oxidation Reduction Potential -->
#     <OxidationReductionPotentialSensor SensorID="41" >
#       <SerialNumber>0363</SerialNumber>
#       <CalibrationDate>15-Apr-19</CalibrationDate>
#       <B>2.499480</B>
#       <M>-0.496195</M>
#       <Offset>0.0</Offset>
#     </OxidationReductionPotentialSensor>
#   </sensor>
#   <sensor Channel="8" >
#     <!-- A/D voltage 4, Fluorometer, WET Labs ECO-AFL/FL -->
#     <FluoroWetlabECO_AFL_FL_Sensor SensorID="20" >
#       <SerialNumber>FLNTURT-2496</SerialNumber>
#       <CalibrationDate>08-May-2019</CalibrationDate>
#       <ScaleFactor>5.00000000e+001</ScaleFactor>
#       <!-- Dark output -->
#       <Vblank>0.0550</Vblank>
#     </FluoroWetlabECO_AFL_FL_Sensor>
#   </sensor>
#   <sensor Channel="9" >
#     <!-- A/D voltage 5, Turbidity Meter, WET Labs, ECO-NTU -->
#     <TurbidityMeter SensorID="67" >
#       <SerialNumber>FLNTURT-2496</SerialNumber>
#       <CalibrationDate>08-May-2019</CalibrationDate>
#       <ScaleFactor>189.000000</ScaleFactor>
#       <!-- Dark output -->
#       <DarkVoltage>0.071000</DarkVoltage>
#     </TurbidityMeter>
#   </sensor>
# </Sensors>
# datcnv_date = Jul 24 2019 11:41:23, 7.26.7.129 [datcnv_vars = 15]
# datcnv_in = C:\DATA\072419_bvr50_a.hex C:\DATA\SBE19plusV2_7809.xmlcon
# datcnv_skipover = 0
# datcnv_ox_hysteresis_correction = yes
# datcnv_ox_tau_correction = yes
# filter_date = Jul 24 2019 11:41:42, 7.26.7.129
# filter_in = C:\DATA\072419_bvr50_a.cnv
# filter_low_pass_tc_A = 0.030
# filter_low_pass_tc_B = 0.150
# filter_low_pass_A_vars = prdM prdE tv290C density00
# filter_low_pass_B_vars = depFM dz/dtM sbeox0Mg/L sbeox0PS specc c0uS/cm flECO-AFL ph orp par/sat/log turbWETntu0
# alignctd_date = Jul 24 2019 11:41:57, 7.26.7.129
# alignctd_in = C:\DATA\072419_bvr50_a.cnv
# alignctd_adv = dz/dtM 1.000, sbeox0Mg/L 1.000, sbeox0PS 1.000, specc 1.000, c0uS/cm 1.000, flECO-AFL 1.000, ph 1.000, orp 1.000, turbWETntu0 1.000                                                                                 
# file_type = ascii
*END*
     -0.660 1.2942e-19     7.7608     95.953      1.462   1.496433    -0.1286     -2.296 -1240.7455 2.8755e+02    -0.4997     -0.647     -0.938    26.1554   996.7502 0.0000e+00
     -0.660 1.1769e-20     7.7622     95.965      1.480   1.513733    -0.1303     -2.296 -1240.7455 3.0251e+02    -0.4874     -0.647     -0.939    26.1594   996.7491 0.0000e+00
     -0.660 1.1141e-21     7.7631     95.970      1.420   1.452197    -0.1156     -2.296 -1240.7455 2.8799e+02    -0.4369     -0.647     -0.938    26.1643   996.7479 0.0000e+00
     -0.660 5.8775e-22     7.7639     95.976      1.355   1.386015    -0.0979     -2.296 -1240.7455 2.6734e+02    -0.4129     -0.647     -0.939    26.1688   996.7467 0.0000e+00
     -0.660 5.4046e-21     7.7649     95.987      1.316   1.347131    -0.0987     -2.296 -1240.7455 2.6210e+02    -0.4597     -0.647     -0.938    26.1699   996.7464 0.0000e+00
     -0.660 5.9354e-20     7.7660     96.003      1.331   1.362229    -0.1163     -2.296 -1240.7455 2.6201e+02    -0.5104     -0.647     -0.939    26.1658   996.7475 0.0000e+00
     -0.660 6.5288e-19     7.7669     96.013      1.409   1.441844    -0.1205     -2.296 -1240.7455 2.6218e+02    -0.5022     -0.647     -0.938    26.1608   996.7488 0.0000e+00
     -0.660 7.1817e-18     7.7674     96.008      1.514   1.549407    -0.1142     -2.296 -1240.7455 2.6218e+02    -0.4914     -0.647     -0.938    26.1582   996.7495 0.0000e+00
     -0.660 7.8999e-17     7.7685     95.997      1.612   1.648986    -0.1186     -2.297 -1240.7455 2.7672e+02    -0.5105     -0.648     -0.939    26.1583   996.7495 0.0000e+00
     -0.660 8.6899e-16     7.7705     95.988      1.658   1.695426    -0.1215     -2.298 -1240.7455 4.0487e+02    -0.5038     -0.647     -0.939    26.1598   996.7491 0.0000e+00
     -0.660 9.5589e-15     7.7741     95.988      1.632   1.667380    -0.1150     -2.298 -1240.7455 8.0607e+02    -0.4757     -0.648     -0.940    26.1608   996.7488 0.0000e+00
     -0.660 1.0515e-13     7.7812     95.987      1.594   1.626682    -0.1090     -2.299 -1240.7455 1.3167e+03    -0.4658     -0.647     -0.939    26.1576   996.7496 0.0000e+00
     -0.660 1.1566e-12     7.7929     95.982      1.616   1.646886    -0.1094     -2.302 -1240.7455 1.5167e+03    -0.4493     -0.647     -0.938    26.1404   996.7543 0.0000e+00
     -0.660 1.2723e-11     7.8079     95.990      1.693   1.721572    -0.1119     -2.306 -1240.7455 1.3748e+03    -0.4084     -0.648     -0.939    26.1185   996.7602 0.0000e+00
     -0.660 1.3995e-10     7.8235     96.007      1.743   1.769363    -0.1122     -2.309 -1240.7455 1.1398e+03    -0.4304     -0.647     -0.939    26.1049   996.7637 0.0000e+00
     -0.660 1.5395e-09     7.8385     96.020      1.758   1.781186    -0.1136     -2.312 -1240.7455 9.6998e+02    -0.4849     -0.647     -0.938    26.0582   996.7761 0.0000e+00
     -0.659 1.6934e-08     7.8532     96.032      1.781   1.801152    -0.1200     -2.315 -1240.7455 9.6828e+02    -0.4781     -0.646     -0.937    25.9615   996.8019 0.0000e+00
     -0.659 1.8628e-07     7.8679     96.044      1.804   1.820682    -0.1205     -2.318 -1240.7455 1.0936e+03    -0.4796     -0.647     -0.938    25.8549   996.8301 0.0000e+00
     -0.659 1.8628e-07     7.8822     96.049      1.814   1.827220    -0.1112     -2.321 -1240.7455 1.2061e+03    -0.5025     -0.647     -0.938    25.7547   996.8565 0.0000e+00
     -0.660 1.6988e-08     7.8962     96.057      1.807   1.816843    -0.1203     -2.324 -1240.7455 1.2751e+03    -0.5260     -0.647     -0.938    25.6593   996.8816 0.0000e+00
     -0.660 2.1364e-09     7.9097     96.069      1.815   1.821931    -0.1349     -2.326 -1240.7455 1.3262e+03    -0.5668     -0.647     -0.938    25.5632   996.9067 0.0000e+00
     -0.659 6.7066e-09     7.9216     96.077      1.884   1.888737    -0.1310     -2.329 -1240.7451 1.3502e+03    -0.5696     -0.646     -0.937    25.4677   996.9317 0.0000e+00
     -0.659 7.2246e-08     7.9313     96.080      1.989   1.990956    -0.1251     -2.331 -1240.7414 1.3555e+03    -0.5271     -0.646     -0.937    25.3712   996.9568 0.0000e+00
     -0.660 7.9457e-07     7.9403     96.090      2.044   2.044049    -0.1244     -2.333 -1240.7009 1.3610e+03    -0.5448     -0.647     -0.939    25.2764   996.9814 0.0000e+00
     -0.660      0.000     7.9494     96.111      2.026   2.023774    -0.1052     -2.334 -1240.2548 1.4012e+03    -0.9469     -0.647     -0.938    25.1917   997.0033 0.0000e+00
     -0.660      0.000     7.9569     96.127      2.003   1.999259    -0.0576     -2.332 -1235.3474 1.4987e+03    -1.6863     -0.647     -0.938    25.1111   997.0241 0.0000e+00
     -0.660      0.001     7.9619     96.141      2.259   2.254539    -0.0264     -2.297 -1181.3663 1.6023e+03    -2.0772     -0.648     -0.939    25.0478   997.0403 0.0000e+00
     -0.660      0.007     7.9612     96.143      5.625   5.617244     0.0293     -1.899  -587.5742 1.6693e+03    -1.9697     -0.647     -0.938    24.9938   997.0541 0.0000e+00
     -0.660      0.023     7.9459     96.130     13.611  13.627895     0.7628     -0.304   305.5598 1.7034e+03    -0.5841     -0.647     -0.939    24.9440   997.0668 0.0000e+00
     -0.660      0.053     7.9122     96.115     21.974  22.090724     2.1316      2.414   489.7942 1.6811e+03     1.9932     -0.648     -0.938    24.8950   997.0794 0.0000e+00
     -0.656      0.094     7.8733     96.104     26.958  27.222119     2.8812      4.859   307.9273 1.4146e+03     3.4658     -0.649     -0.940    24.8726   997.0849 0.0000e+00
     -0.636      0.143     7.8431     96.105     28.410  28.796704     2.9075      6.385   284.6207 8.7666e+02     3.7189     -0.636     -0.923    24.8542   997.0900 0.0000e+00
     -0.591      0.193     7.8261     96.164     28.226  28.695373     2.3900      7.292   272.6967 4.7949e+02     4.9549     -0.588     -0.852    24.9136   997.0777 0.0000e+00
     -0.523      0.238     7.8275     96.369     28.009  28.534970     1.4269      7.841   260.4639 6.5030e+02     7.2343     -0.517     -0.750    25.1915   997.0092 0.0000e+00
     -0.443      0.269     7.8489     96.753     27.882  28.443541     0.9044      8.181   251.2331 1.2411e+03     8.4375     -0.435     -0.631    25.4917   996.9333 0.0000e+00
     -0.360      0.282     7.8877     97.299     27.833  28.414778     0.8581      8.384   252.5480 1.6756e+03     8.3604     -0.351     -0.509    25.6908   996.8817 0.0000e+00
     -0.280      0.280     7.9388     97.962     27.848  28.441011     0.8761      8.494   257.7770 1.8524e+03     6.5639     -0.273     -0.396    25.8409   996.8422 0.0000e+00
     -0.208      0.269     7.9971     98.696     27.908  28.506947     0.9311      8.540   256.1234 1.9944e+03     3.2992     -0.200     -0.291    25.9452   996.8149 0.0000e+00
     -0.145      0.253     8.0603     99.480     27.976  28.577539     0.9677      8.544   250.8805 1.9380e+03     1.5617     -0.139     -0.202    26.0116   996.7975 0.0000e+00
     -0.089      0.232     8.1232    100.255     27.995  28.596623     0.9713      8.523   246.0945 1.5279e+03     1.3844     -0.088     -0.128    26.0453   996.7888 0.0000e+00
     -0.031      0.207     8.1784    100.936     28.010  28.610802     0.9750      8.492   247.8158 1.4855e+03     1.2862     -0.032     -0.047    26.0615   996.7848 0.0000e+00
      0.029      0.177     8.2222    101.478     28.021  28.622079     0.9949      8.465   255.5167 1.7660e+03     1.1940      0.033      0.048    26.0677   996.7834 0.0000e+00
      0.079      0.142     8.2521    101.849     27.942  28.542639     1.0215      8.446   256.1781 1.5427e+03     1.1216      0.084      0.123    26.0688   996.7833 0.0000e+00
      0.111      0.105     8.2666    102.031     27.812  28.411651     1.0277      8.435   249.4457 1.1739e+03     1.0992      0.115      0.166    26.0669   996.7840 0.0000e+00
      0.128      0.069     8.2681    102.051     27.771  28.370686     1.0177      8.426   245.4419 1.0071e+03     1.1188      0.130      0.187    26.0672   996.7841 0.0000e+00
      0.133      0.037     8.2537    101.872     27.890  28.491464     1.0127      8.416   248.8097 1.1727e+03     1.1290      0.133      0.193    26.0667   996.7842 0.0000e+00
      0.132      0.014     8.2087    101.316     28.124  28.729930     1.0192      8.405   253.5130 1.4256e+03     1.1242      0.131      0.190    26.0693   996.7834 0.0000e+00
      0.128      0.000     8.1006     99.986     28.358  28.969874     1.0273      8.390   254.6425 1.3686e+03     1.1273      0.125      0.182    26.0726   996.7825 0.0000e+00
      0.125     -0.007     7.8906     97.400     28.492  29.108502     1.0250      8.375   254.5514 1.2422e+03     1.1340      0.122      0.177    26.0723   996.7825 0.0000e+00
      0.125     -0.009     7.5843     93.629     28.517  29.137116     1.0173      8.360   251.1200 1.2918e+03     1.1720      0.123      0.178    26.0701   996.7831 0.0000e+00
      0.124     -0.008     7.2358     89.339     28.501  29.125498     1.0115      8.345   249.2041 1.3475e+03     1.2593      0.123      0.177    26.0702   996.7832 0.0000e+00
      0.121     -0.006     6.8993     85.198     28.528  29.158383     1.0155      8.332   252.3799 1.5526e+03     1.3365      0.119      0.172    26.0723   996.7828 0.0000e+00
      0.117     -0.003     6.6106     81.643     28.582  29.217488     1.0316      8.323   253.4688 2.0707e+03     1.3519      0.115      0.166    26.0746   996.7821 0.0000e+00
      0.115      0.002     6.3834     78.846     28.567  29.205663     1.0328      8.317   254.3681 1.9551e+03     1.2820      0.112      0.162    26.0809   996.7804 0.0000e+00
      0.117      0.007     6.2186     76.816     28.503  29.142312     1.0122      8.309   256.1114 1.3881e+03     1.1469      0.113      0.165    26.0900   996.7780 0.0000e+00
      0.121      0.011     6.1159     75.547     28.510  29.149452     1.0079      8.298   252.9516 1.2558e+03     1.0625      0.117      0.172    26.1000   996.7753 0.0000e+00
      0.126      0.016     6.0668     74.936     28.589  29.228539     1.0241      8.286   249.6320 1.4925e+03     1.0808      0.121      0.177    26.1067   996.7737 0.0000e+00
      0.134      0.021     6.0510     74.736     28.635  29.273715     1.0609      8.275   249.6164 1.6697e+03     1.1718      0.132      0.192    26.1114   996.7724 0.0000e+00
      0.138      0.029     6.0480     74.698     28.614  29.251523     1.1144      8.259   249.7512 1.4870e+03     1.2774      0.138      0.200    26.1171   996.7709 0.0000e+00
      0.138      0.038     6.0422     74.625     28.577  29.214011     1.1421      8.236   249.7133 1.2587e+03     1.3082      0.132      0.192    26.1164   996.7711 0.0000e+00
      0.145      0.043     6.0223     74.379     28.565  29.200858     1.1541      8.217   249.5882 1.1136e+03     1.3146      0.137      0.199    26.1115   996.7725 0.0000e+00
      0.163      0.046     5.9850     73.916     28.585  29.219393     1.2328      8.208   249.5291 1.0205e+03     1.2892      0.157      0.227    26.1077   996.7735 0.0000e+00
      0.186      0.047     5.9372     73.324     28.613  29.247761     1.3743      8.205   249.8588 1.0002e+03     1.1662      0.184      0.268    26.1066   996.7739 0.0000e+00
