* Sea-Bird SBE19plus  Data File:
* FileName = C:\DATA\MSN2_CTD_CASTS_072419\072519_bvr50_a_0001.hex
* Software version 2.8.0.119 SB_Terminal.dll
* Temperature SN = 7809
* Conductivity SN = 7809
* System UpLoad Time = Jul 25 2019 07:18:39
* <ApplicationData>
* <Seaterm232>
* <SoftwareVersion>2.8.0.119</SoftwareVersion>
* <BuildDate>07-Nov-2018</BuildDate>
* </Seaterm232>
* </ApplicationData>
* cast   1 25 Jul 2019 04:07:05 samples 1 to 962, avg = 1, stop = mag switch
# nquan = 16
# nvalues = 781                         
# units = specified
# name 0 = depFM: Depth [fresh water, m]
# name 1 = dz/dtM: Descent Rate [m/s]
# name 2 = sbeox0Mg/L: Oxygen, SBE 43 [mg/l]
# name 3 = sbeox0PS: Oxygen, SBE 43 [% saturation]
# name 4 = specc: Specific Conductance [uS/cm]
# name 5 = c0uS/cm: Conductivity [uS/cm]
# name 6 = flECO-AFL: Fluorescence, WET Labs ECO-AFL/FL [mg/m^3]
# name 7 = ph: pH
# name 8 = orp: Oxidation Reduction Potential [mV]
# name 9 = par/sat/log: PAR/Logarithmic, Satlantic
# name 10 = turbWETntu0: Turbidity, WET Labs ECO [NTU]
# name 11 = prdM: Pressure, Strain Gauge [db]
# name 12 = prdE: Pressure, Strain Gauge [psi]
# name 13 = tv290C: Temperature [ITS-90, deg C]
# name 14 = density00: Density [density, kg/m^3]
# name 15 = flag:  0.000e+00
# span 0 =     -0.650,     10.562       
# span 1 =     -0.024,      0.113       
# span 2 =    -0.0980,     8.9250       
# span 3 =     -0.962,    100.504       
# span 4 =      0.702,    236.072       
# span 5 =   0.602441, 158.139423       
# span 6 =    -0.1613,    17.6430       
# span 7 =     -2.560,      8.914       
# span 8 = -1240.7455,  1086.8937       
# span 9 = 1.2360e-01, 1.2396e-01       
# span 10 =    -0.5835,     8.7131      
# span 11 =     -0.638,     10.359      
# span 12 =     -0.925,     15.024      
# span 13 =     8.4858,    26.3432      
# span 14 =   996.7124,   999.9597      
# span 15 = 0.0000e+00, 0.0000e+00      
# interval = seconds: 0.25
# start_time = Jul 25 2019 04:07:05 [Instrument's time stamp, header]
# bad_flag = -9.990e-29
# <Sensors count="9" >
#   <sensor Channel="1" >
#     <!-- Count, Temperature -->
#     <TemperatureSensor SensorID="58" >
#       <SerialNumber>7809</SerialNumber>
#       <CalibrationDate>24-Mar-19</CalibrationDate>
#       <A0>1.21792325e-003</A0>
#       <A1>2.81669265e-004</A1>
#       <A2>-1.60333336e-006</A2>
#       <A3>1.98414625e-007</A3>
#       <Slope>1.00000000</Slope>
#       <Offset>0.0000</Offset>
#     </TemperatureSensor>
#   </sensor>
#   <sensor Channel="2" >
#     <!-- Frequency 0, Conductivity -->
#     <ConductivitySensor SensorID="3" >
#       <SerialNumber>7809</SerialNumber>
#       <CalibrationDate>24-Mar-19</CalibrationDate>
#       <UseG_J>1</UseG_J>
#       <!-- Cell const and series R are applicable only for wide range sensors. -->
#       <SeriesR>0.0000</SeriesR>
#       <CellConst>2000.0000</CellConst>
#       <ConductivityType>0</ConductivityType>
#       <Coefficients equation="0" >
#         <A>0.00000000e+000</A>
#         <B>0.00000000e+000</B>
#         <C>0.00000000e+000</C>
#         <D>0.00000000e+000</D>
#         <M>0.0</M>
#         <CPcor>-9.57000000e-008</CPcor>
#       </Coefficients>
#       <Coefficients equation="1" >
#         <G>-1.00589325e+000</G>
#         <H>1.26816302e-001</H>
#         <I>-1.51560448e-004</I>
#         <J>2.67137274e-005</J>
#         <CPcor>-9.57000000e-008</CPcor>
#         <CTcor>3.2500e-006</CTcor>
#         <!-- WBOTC not applicable unless ConductivityType = 1. -->
#         <WBOTC>0.00000000e+000</WBOTC>
#       </Coefficients>
#       <Slope>1.00000000</Slope>
#       <Offset>0.00000</Offset>
#     </ConductivitySensor>
#   </sensor>
#   <sensor Channel="3" >
#     <!-- Count, Pressure, Strain Gauge -->
#     <PressureSensor SensorID="46" >
#       <SerialNumber>7809</SerialNumber>
#       <CalibrationDate>11-Mar-19</CalibrationDate>
#       <PA0>4.56561833e-002</PA0>
#       <PA1>4.85095118e-004</PA1>
#       <PA2>-2.88327090e-012</PA2>
#       <PTEMPA0>-5.48784562e+001</PTEMPA0>
#       <PTEMPA1>5.53756816e+001</PTEMPA1>
#       <PTEMPA2>-5.86727098e-001</PTEMPA2>
#       <PTCA0>5.25246745e+005</PTCA0>
#       <PTCA1>1.22304214e+001</PTCA1>
#       <PTCA2>-3.56745036e-001</PTCA2>
#       <PTCB0>2.51668750e+001</PTCB0>
#       <PTCB1>3.75000000e-004</PTCB1>
#       <PTCB2>0.00000000e+000</PTCB2>
#       <Offset>0.000000</Offset>
#     </PressureSensor>
#   </sensor>
#   <sensor Channel="4" >
#     <!-- A/D voltage 0, Oxygen, SBE 43 -->
#     <OxygenSensor SensorID="38" >
#       <SerialNumber>0434</SerialNumber>
#       <CalibrationDate>13-Apr-19</CalibrationDate>
#       <Use2007Equation>1</Use2007Equation>
#       <CalibrationCoefficients equation="0" >
#         <!-- Coefficients for Owens-Millard equation. -->
#         <Boc>0.0000</Boc>
#         <Soc>0.0000e+000</Soc>
#         <offset>0.0000</offset>
#         <Pcor>0.00e+000</Pcor>
#         <Tcor>0.0000</Tcor>
#         <Tau>0.0</Tau>
#       </CalibrationCoefficients>
#       <CalibrationCoefficients equation="1" >
#         <!-- Coefficients for Sea-Bird equation - SBE calibration in 2007 and later. -->
#         <Soc>4.2007e-001</Soc>
#         <offset>-0.6109</offset>
#         <A>-4.3656e-003</A>
#         <B> 1.7017e-004</B>
#         <C>-2.5341e-006</C>
#         <D0> 2.5826e+000</D0>
#         <D1> 1.92634e-004</D1>
#         <D2>-4.64803e-002</D2>
#         <E> 3.6000e-002</E>
#         <Tau20> 1.1800</Tau20>
#         <H1>-3.3000e-002</H1>
#         <H2> 5.0000e+003</H2>
#         <H3> 1.4500e+003</H3>
#       </CalibrationCoefficients>
#     </OxygenSensor>
#   </sensor>
#   <sensor Channel="5" >
#     <!-- A/D voltage 1, PAR/Logarithmic, Satlantic -->
#     <PARLog_SatlanticSensor SensorID="76" >
#       <SerialNumber>1122</SerialNumber>
#       <CalibrationDate>08-May-2019</CalibrationDate>
#       <a0>9.7456e-001</a0>
#       <a1>8.1640e-001</a1>
#       <Im>1.3589e+000</Im>
#       <Multiplier>1.0000e+000</Multiplier>
#     </PARLog_SatlanticSensor>
#   </sensor>
#   <sensor Channel="6" >
#     <!-- A/D voltage 2, pH -->
#     <pH_Sensor SensorID="43" >
#       <SerialNumber>0363</SerialNumber>
#       <CalibrationDate>15-Apr-19</CalibrationDate>
#       <Slope>4.5952</Slope>
#       <Offset>2.5370</Offset>
#     </pH_Sensor>
#   </sensor>
#   <sensor Channel="7" >
#     <!-- A/D voltage 3, Oxidation Reduction Potential -->
#     <OxidationReductionPotentialSensor SensorID="41" >
#       <SerialNumber>0363</SerialNumber>
#       <CalibrationDate>15-Apr-19</CalibrationDate>
#       <B>2.499480</B>
#       <M>-0.496195</M>
#       <Offset>0.0</Offset>
#     </OxidationReductionPotentialSensor>
#   </sensor>
#   <sensor Channel="8" >
#     <!-- A/D voltage 4, Fluorometer, WET Labs ECO-AFL/FL -->
#     <FluoroWetlabECO_AFL_FL_Sensor SensorID="20" >
#       <SerialNumber>FLNTURT-2496</SerialNumber>
#       <CalibrationDate>08-May-2019</CalibrationDate>
#       <ScaleFactor>5.00000000e+001</ScaleFactor>
#       <!-- Dark output -->
#       <Vblank>0.0550</Vblank>
#     </FluoroWetlabECO_AFL_FL_Sensor>
#   </sensor>
#   <sensor Channel="9" >
#     <!-- A/D voltage 5, Turbidity Meter, WET Labs, ECO-NTU -->
#     <TurbidityMeter SensorID="67" >
#       <SerialNumber>FLNTURT-2496</SerialNumber>
#       <CalibrationDate>08-May-2019</CalibrationDate>
#       <ScaleFactor>189.000000</ScaleFactor>
#       <!-- Dark output -->
#       <DarkVoltage>0.071000</DarkVoltage>
#     </TurbidityMeter>
#   </sensor>
# </Sensors>
# datcnv_date = Jul 25 2019 11:40:36, 7.26.7.129 [datcnv_vars = 15]
# datcnv_in = C:\DATA\MSN2_CTD_CASTS_072419\072519_bvr50_a.hex C:\DATA\SBE19plusV2_7809.xmlcon
# datcnv_skipover = 0
# datcnv_ox_hysteresis_correction = yes
# datcnv_ox_tau_correction = yes
# filter_date = Jul 25 2019 11:40:57, 7.26.7.129
# filter_in = C:\DATA\MSN2_CTD_CASTS_072419\072519_bvr50_a.cnv
# filter_low_pass_tc_A = 0.030
# filter_low_pass_tc_B = 0.150
# filter_low_pass_A_vars = prdM prdE tv290C density00
# filter_low_pass_B_vars = depFM dz/dtM sbeox0Mg/L sbeox0PS specc c0uS/cm flECO-AFL ph orp par/sat/log turbWETntu0
# alignctd_date = Jul 25 2019 11:41:13, 7.26.7.129
# alignctd_in = C:\DATA\MSN2_CTD_CASTS_072419\072519_bvr50_a.cnv
# alignctd_adv = dz/dtM 1.000, sbeox0Mg/L 1.000, sbeox0PS 1.000, specc 1.000, c0uS/cm 1.000, flECO-AFL 1.000, ph 1.000, orp 1.000, turbWETntu0 1.000                                                                                 
# file_type = ascii
*END*
     -0.649 8.6275e-20     8.8842     93.643      0.702   0.602625    -0.1355      6.734 -1240.7455 1.2365e-01    -0.5149     -0.636     -0.923    17.8940   998.6204 0.0000e+00
     -0.649 7.8435e-21     8.8850     93.652      0.702   0.602454    -0.1493      6.536 -1240.7455 1.2369e-01    -0.5430     -0.637     -0.924    17.8941   998.6203 0.0000e+00
     -0.649 7.1305e-22     8.8856     93.659      0.702   0.602441    -0.1546      5.702 -1240.7455 1.2371e-01    -0.5456     -0.637     -0.924    17.8941   998.6203 0.0000e+00
     -0.649 6.4820e-23     8.8844     93.647      0.702   0.602466    -0.1568      3.437 -1240.7455 1.2369e-01    -0.5462     -0.637     -0.924    17.8940   998.6204 0.0000e+00
     -0.649 5.8929e-24     8.8844     93.647      0.702   0.602752    -0.1582      0.132 -1240.7455 1.2369e-01    -0.5835     -0.637     -0.924    17.8939   998.6204 0.0000e+00
     -0.649 5.3541e-25     8.8853     93.656      0.706   0.605903    -0.1539     -1.994 -1240.7455 1.2369e-01    -0.5710     -0.637     -0.924    17.8938   998.6204 0.0000e+00
     -0.649 4.5486e-26     8.8860     93.664      0.747   0.640568    -0.1482     -2.509 -1240.7455 1.2367e-01    -0.5257     -0.637     -0.924    17.8940   998.6203 0.0000e+00
     -0.650 -3.094e-26     8.8866     93.671      0.822   0.705083    -0.1408     -2.555 -1240.7455 1.2374e-01    -0.5276     -0.637     -0.924    17.8943   998.6203 0.0000e+00
     -0.650 -3.886e-25     8.8861     93.666      0.877   0.752335    -0.1428     -2.560 -1240.7455 1.2380e-01    -0.5607     -0.637     -0.924    17.8944   998.6203 0.0000e+00
     -0.650 -4.279e-24     8.8874     93.679      0.896   0.768368    -0.1466     -2.560 -1240.7455 1.2377e-01    -0.5654     -0.637     -0.925    17.8944   998.6203 0.0000e+00
     -0.650 -4.707e-23     8.8907     93.714      0.900   0.772215    -0.1439     -2.560 -1240.7455 1.2374e-01    -0.5192     -0.637     -0.925    17.8945   998.6203 0.0000e+00
     -0.650 -5.178e-22     8.8920     93.728      0.931   0.798854    -0.1442     -2.560 -1240.7455 1.2374e-01    -0.4941     -0.637     -0.925    17.8944   998.6203 0.0000e+00
     -0.650 -5.696e-21     8.8908     93.715      0.976   0.837006    -0.1409     -2.560 -1240.7455 1.2374e-01    -0.5236     -0.637     -0.924    17.8945   998.6203 0.0000e+00
     -0.649 -6.265e-20     8.8894     93.701      0.995   0.853343    -0.1397     -2.560 -1240.7455 1.2373e-01    -0.5489     -0.636     -0.923    17.8946   998.6203 0.0000e+00
     -0.649 -6.892e-19     8.8876     93.683      1.014   0.869663    -0.1463     -2.560 -1240.7455 1.2370e-01    -0.5374     -0.637     -0.924    17.8948   998.6202 0.0000e+00
     -0.649 -7.581e-18     8.8861     93.668      1.058   0.907603    -0.1516     -2.560 -1240.7455 1.2373e-01    -0.5149     -0.636     -0.923    17.8950   998.6202 0.0000e+00
     -0.649 -8.339e-17     8.8858     93.664      1.086   0.931921    -0.1524     -2.560 -1240.7455 1.2380e-01    -0.5065     -0.637     -0.924    17.8951   998.6201 0.0000e+00
     -0.649 -9.173e-16     8.8840     93.644      1.061   0.910246    -0.1464     -2.560 -1240.7455 1.2382e-01    -0.5020     -0.637     -0.925    17.8953   998.6201 0.0000e+00
     -0.649 -1.009e-14     8.8834     93.638      1.048   0.898964    -0.1396     -2.560 -1240.7455 1.2376e-01    -0.4926     -0.637     -0.924    17.8955   998.6201 0.0000e+00
     -0.649 -1.110e-13     8.8861     93.668      1.075   0.922234    -0.1402     -2.560 -1240.7455 1.2366e-01    -0.4918     -0.637     -0.924    17.8957   998.6201 0.0000e+00
     -0.650 -1.221e-12     8.8887     93.696      1.094   0.938155    -0.1449     -2.560 -1240.7455 1.2364e-01    -0.4928     -0.637     -0.924    17.8957   998.6201 0.0000e+00
     -0.650 -1.343e-11     8.8899     93.708      1.125   0.964747    -0.1444     -2.560 -1240.7455 1.2372e-01    -0.4715     -0.637     -0.924    17.8956   998.6201 0.0000e+00
     -0.650 -1.477e-10     8.8894     93.703      1.155   0.990309    -0.1433     -2.560 -1240.7455 1.2372e-01    -0.4633     -0.637     -0.924    17.8957   998.6201 0.0000e+00
     -0.650 -1.625e-09     8.8885     93.694      1.158   0.993776    -0.1478     -2.560 -1240.7455 1.2373e-01    -0.4921     -0.638     -0.925    17.8959   998.6200 0.0000e+00
     -0.650 -1.788e-08     8.8873     93.683      1.173   1.006670    -0.1472     -2.560 -1240.7455 1.2381e-01    -0.5255     -0.637     -0.925    17.8959   998.6200 0.0000e+00
     -0.650 -1.966e-07     8.8853     93.663      1.188   1.019486    -0.1362     -2.560 -1240.7455 1.2379e-01    -0.5395     -0.638     -0.925    17.8960   998.6200 0.0000e+00
     -0.650 -3.605e-07     8.8849     93.660      1.191   1.022011    -0.1273     -2.560 -1240.7455 1.2374e-01    -0.5298     -0.637     -0.925    17.8964   998.6199 0.0000e+00
     -0.650 -1.966e-07     8.8857     93.670      1.209   1.037198    -0.1350     -2.560 -1240.7455 1.2373e-01    -0.5393     -0.637     -0.925    17.8969   998.6199 0.0000e+00
     -0.650 -1.788e-08     8.8863     93.677      1.254   1.076386    -0.1434     -2.560 -1240.7455 1.2373e-01    -0.5557     -0.637     -0.925    17.8972   998.6198 0.0000e+00
     -0.650 -1.625e-09     8.8888     93.705      1.299   1.115660    -0.1418     -2.560 -1240.7455 1.2378e-01    -0.5312     -0.637     -0.925    17.8978   998.6197 0.0000e+00
     -0.650 -1.477e-10     8.8929     93.748      1.319   1.131887    -0.1497     -2.560 -1240.7455 1.2382e-01    -0.5384     -0.637     -0.924    17.8985   998.6196 0.0000e+00
     -0.650 -1.343e-11     8.8956     93.778      1.335   1.145865    -0.1613     -2.560 -1240.7455 1.2385e-01    -0.5777     -0.637     -0.925    17.8992   998.6194 0.0000e+00
     -0.650 -1.221e-12     8.8965     93.787      1.349   1.157943    -0.1522     -2.560 -1240.7455 1.2389e-01    -0.5802     -0.637     -0.924    17.8996   998.6193 0.0000e+00
     -0.650 -1.110e-13     8.8977     93.801      1.341   1.151200    -0.1348     -2.560 -1240.7455 1.2387e-01    -0.5679     -0.637     -0.925    17.8999   998.6193 0.0000e+00
     -0.650 -1.009e-14     8.9004     93.830      1.388   1.191065    -0.1419     -2.560 -1240.7455 1.2379e-01    -0.5599     -0.637     -0.925    17.9002   998.6192 0.0000e+00
     -0.650 -8.741e-16     8.9014     93.842      1.542   1.323130    -0.1598     -2.560 -1240.7455 1.2369e-01    -0.5496     -0.637     -0.925    17.9005   998.6192 0.0000e+00
     -0.650 3.9418e-16     8.9003     93.830      1.726   1.480747    -0.1610     -2.560 -1240.7455 1.2367e-01    -0.5420     -0.637     -0.925    17.9010   998.6191 0.0000e+00
     -0.650 5.2457e-15     8.8999     93.827      1.911   1.639454    -0.1557     -2.560 -1240.7455 1.2372e-01    -0.5329     -0.637     -0.925    17.9016   998.6190 0.0000e+00
     -0.650 5.7786e-14     8.9019     93.851      2.228   1.911410    -0.1571     -2.560 -1240.7455 1.2373e-01    -0.5049     -0.637     -0.925    17.9021   998.6189 0.0000e+00
     -0.650 6.3565e-13     8.9051     93.886      2.752   2.361110    -0.1597     -2.560 -1240.7455 1.2373e-01    -0.4983     -0.637     -0.925    17.9022   998.6189 0.0000e+00
     -0.650 6.9922e-12     8.9076     93.915      3.299   2.831279    -0.1527     -2.560 -1240.7455 1.2374e-01    -0.5187     -0.637     -0.924    17.9023   998.6189 0.0000e+00
     -0.650 7.6914e-11     8.9091     93.933      3.609   3.097174    -0.1423     -2.560 -1240.7455 1.2375e-01    -0.5226     -0.637     -0.924    17.9031   998.6188 0.0000e+00
     -0.650 8.4605e-10     8.9096     93.940      3.618   3.104706    -0.1470     -2.560 -1240.7455 1.2374e-01    -0.5448     -0.637     -0.924    17.9045   998.6186 0.0000e+00
     -0.649 9.3066e-09     8.9099     93.948      3.479   2.985718    -0.1568     -2.560 -1240.7453 1.2372e-01    -0.5582     -0.637     -0.924    17.9054   998.6185 0.0000e+00
     -0.649 1.0237e-07     8.9109     93.970      3.335   2.862489    -0.1573     -2.560 -1240.7435 1.2374e-01    -0.5209     -0.637     -0.924    17.9065   998.6185 0.0000e+00
     -0.649      0.000     8.9131     94.011      3.210   2.755379    -0.1525     -2.559 -1240.7231 1.2375e-01    -0.5196     -0.637     -0.924    17.9072   998.6183 0.0000e+00
     -0.649      0.000     8.9162     94.065      3.075   2.641161    -0.1420     -2.558 -1240.4987 1.2374e-01    -0.5426     -0.637     -0.924    17.9086   998.6182 0.0000e+00
     -0.649      0.000     8.9204     94.129      2.905   2.495357    -0.1340     -2.550 -1238.0303 1.2373e-01    -0.5369     -0.637     -0.924    17.9090   998.6180 0.0000e+00
     -0.649      0.001     8.9250     94.200      2.704   2.323165    -0.1350     -2.464 -1210.8779 1.2370e-01    -0.5495     -0.637     -0.924    17.9159   998.6168 0.0000e+00
     -0.649      0.006     8.9247     94.273      2.492   2.143343    -0.1362     -1.515  -912.2020 1.2368e-01    -0.5633     -0.637     -0.924    17.9243   998.6151 0.0000e+00
     -0.649      0.016     8.8755     94.326      2.415   2.095377    -0.1399      0.843   -75.3575 1.2369e-01    -0.5394     -0.637     -0.924    17.9397   998.6123 0.0000e+00
     -0.649      0.030     8.7100     94.304      3.011   2.693702    -0.1458      3.450   820.1636 1.2373e-01    -0.5235     -0.637     -0.924    17.9438   998.6113 0.0000e+00
     -0.645      0.044     8.4600     94.186      6.206   5.765822    -0.1461      5.243  1086.8937 1.2378e-01    -0.5346     -0.637     -0.924    17.9625   998.6082 0.0000e+00
     -0.630      0.058     8.2382     94.039     12.458  11.797223    -0.1431      6.358   821.5169 1.2378e-01    -0.4772     -0.624     -0.905    17.9541   998.6092 0.0000e+00
     -0.605      0.072     8.0894     93.927     19.879  19.078153    -0.1445      7.125   496.3257 1.2375e-01    -0.3546     -0.593     -0.860    18.0144   998.5992 0.0000e+00
     -0.580      0.086     7.9909     93.838     26.124  25.319588    -0.1457      7.673   356.8993 1.2376e-01    -0.2646     -0.566     -0.820    19.0020   998.4099 0.0000e+00
     -0.560      0.098     7.9198     93.751     28.636  27.959898    -0.1139      8.047   340.7906 1.2381e-01    -0.0437     -0.549     -0.797    20.7615   998.0506 0.0000e+00
     -0.539      0.106     7.8657     93.668     28.602  28.104227     0.1698      8.292   338.3812 1.2382e-01     2.1850     -0.531     -0.771    22.0738   997.7636 0.0000e+00
     -0.511      0.108     7.8247     93.593     28.440  28.080043     0.6750      8.436   338.3505 1.2380e-01     6.2657     -0.503     -0.729    22.8806   997.5784 0.0000e+00
     -0.477      0.106     7.7902     93.531     28.292  28.048365     0.9575      8.516   337.9242 1.2378e-01     8.4943     -0.467     -0.677    23.4417   997.4479 0.0000e+00
     -0.442      0.102     7.7581     93.479     28.109  27.975152     1.0024      8.583   336.5819 1.2374e-01     8.7131     -0.432     -0.627    23.8343   997.3527 0.0000e+00
     -0.412      0.097     7.7285     93.417     27.930  27.892884     1.0352      8.653   335.1127 1.2374e-01     8.6163     -0.399     -0.580    24.1616   997.2719 0.0000e+00
     -0.393      0.092     7.7043     93.359     27.776  27.815153     1.2420      8.723   333.9270 1.2375e-01     6.7669     -0.381     -0.554    24.3715   997.2198 0.0000e+00
