* Sea-Bird SBE19plus  Data File:
* FileName = C:\DATA\MSN2_CTD_CASTS_072419\072519_bvr50_c_0001.hex
* Software version 2.8.0.119 SB_Terminal.dll
* Temperature SN = 7809
* Conductivity SN = 7809
* System UpLoad Time = Jul 25 2019 11:39:00
* <ApplicationData>
* <Seaterm232>
* <SoftwareVersion>2.8.0.119</SoftwareVersion>
* <BuildDate>07-Nov-2018</BuildDate>
* </Seaterm232>
* </ApplicationData>
* cast   1 25 Jul 2019 11:31:30 samples 1 to 973, avg = 1, stop = mag switch
# nquan = 16
# nvalues = 844                         
# units = specified
# name 0 = depFM: Depth [fresh water, m]
# name 1 = dz/dtM: Descent Rate [m/s]
# name 2 = sbeox0Mg/L: Oxygen, SBE 43 [mg/l]
# name 3 = sbeox0PS: Oxygen, SBE 43 [% saturation]
# name 4 = specc: Specific Conductance [uS/cm]
# name 5 = c0uS/cm: Conductivity [uS/cm]
# name 6 = flECO-AFL: Fluorescence, WET Labs ECO-AFL/FL [mg/m^3]
# name 7 = ph: pH
# name 8 = orp: Oxidation Reduction Potential [mV]
# name 9 = par/sat/log: PAR/Logarithmic, Satlantic
# name 10 = turbWETntu0: Turbidity, WET Labs ECO [NTU]
# name 11 = prdM: Pressure, Strain Gauge [db]
# name 12 = prdE: Pressure, Strain Gauge [psi]
# name 13 = tv290C: Temperature [ITS-90, deg C]
# name 14 = density00: Density [density, kg/m^3]
# name 15 = flag:  0.000e+00
# span 0 =     -0.617,     10.322       
# span 1 =     -0.189,      0.243       
# span 2 =     0.0162,     8.3977       
# span 3 =      0.163,    104.005       
# span 4 =      0.539,    140.966       
# span 5 =   0.549295,  94.913668       
# span 6 =    -0.3855,    13.5550       
# span 7 =      4.730,      9.087       
# span 8 = -1240.7455,   574.4267       
# span 9 = 1.2343e-01, 2.3690e+03       
# span 10 =    -0.5660,   149.8830      
# span 11 =     -0.605,     10.123      
# span 12 =     -0.878,     14.682      
# span 13 =     8.5992,    26.3755      
# span 14 =   996.7013,   999.9103      
# span 15 = 0.0000e+00, 0.0000e+00      
# interval = seconds: 0.25
# start_time = Jul 25 2019 11:31:30 [Instrument's time stamp, header]
# bad_flag = -9.990e-29
# <Sensors count="9" >
#   <sensor Channel="1" >
#     <!-- Count, Temperature -->
#     <TemperatureSensor SensorID="58" >
#       <SerialNumber>7809</SerialNumber>
#       <CalibrationDate>24-Mar-19</CalibrationDate>
#       <A0>1.21792325e-003</A0>
#       <A1>2.81669265e-004</A1>
#       <A2>-1.60333336e-006</A2>
#       <A3>1.98414625e-007</A3>
#       <Slope>1.00000000</Slope>
#       <Offset>0.0000</Offset>
#     </TemperatureSensor>
#   </sensor>
#   <sensor Channel="2" >
#     <!-- Frequency 0, Conductivity -->
#     <ConductivitySensor SensorID="3" >
#       <SerialNumber>7809</SerialNumber>
#       <CalibrationDate>24-Mar-19</CalibrationDate>
#       <UseG_J>1</UseG_J>
#       <!-- Cell const and series R are applicable only for wide range sensors. -->
#       <SeriesR>0.0000</SeriesR>
#       <CellConst>2000.0000</CellConst>
#       <ConductivityType>0</ConductivityType>
#       <Coefficients equation="0" >
#         <A>0.00000000e+000</A>
#         <B>0.00000000e+000</B>
#         <C>0.00000000e+000</C>
#         <D>0.00000000e+000</D>
#         <M>0.0</M>
#         <CPcor>-9.57000000e-008</CPcor>
#       </Coefficients>
#       <Coefficients equation="1" >
#         <G>-1.00589325e+000</G>
#         <H>1.26816302e-001</H>
#         <I>-1.51560448e-004</I>
#         <J>2.67137274e-005</J>
#         <CPcor>-9.57000000e-008</CPcor>
#         <CTcor>3.2500e-006</CTcor>
#         <!-- WBOTC not applicable unless ConductivityType = 1. -->
#         <WBOTC>0.00000000e+000</WBOTC>
#       </Coefficients>
#       <Slope>1.00000000</Slope>
#       <Offset>0.00000</Offset>
#     </ConductivitySensor>
#   </sensor>
#   <sensor Channel="3" >
#     <!-- Count, Pressure, Strain Gauge -->
#     <PressureSensor SensorID="46" >
#       <SerialNumber>7809</SerialNumber>
#       <CalibrationDate>11-Mar-19</CalibrationDate>
#       <PA0>4.56561833e-002</PA0>
#       <PA1>4.85095118e-004</PA1>
#       <PA2>-2.88327090e-012</PA2>
#       <PTEMPA0>-5.48784562e+001</PTEMPA0>
#       <PTEMPA1>5.53756816e+001</PTEMPA1>
#       <PTEMPA2>-5.86727098e-001</PTEMPA2>
#       <PTCA0>5.25246745e+005</PTCA0>
#       <PTCA1>1.22304214e+001</PTCA1>
#       <PTCA2>-3.56745036e-001</PTCA2>
#       <PTCB0>2.51668750e+001</PTCB0>
#       <PTCB1>3.75000000e-004</PTCB1>
#       <PTCB2>0.00000000e+000</PTCB2>
#       <Offset>0.000000</Offset>
#     </PressureSensor>
#   </sensor>
#   <sensor Channel="4" >
#     <!-- A/D voltage 0, Oxygen, SBE 43 -->
#     <OxygenSensor SensorID="38" >
#       <SerialNumber>0434</SerialNumber>
#       <CalibrationDate>13-Apr-19</CalibrationDate>
#       <Use2007Equation>1</Use2007Equation>
#       <CalibrationCoefficients equation="0" >
#         <!-- Coefficients for Owens-Millard equation. -->
#         <Boc>0.0000</Boc>
#         <Soc>0.0000e+000</Soc>
#         <offset>0.0000</offset>
#         <Pcor>0.00e+000</Pcor>
#         <Tcor>0.0000</Tcor>
#         <Tau>0.0</Tau>
#       </CalibrationCoefficients>
#       <CalibrationCoefficients equation="1" >
#         <!-- Coefficients for Sea-Bird equation - SBE calibration in 2007 and later. -->
#         <Soc>4.2007e-001</Soc>
#         <offset>-0.6109</offset>
#         <A>-4.3656e-003</A>
#         <B> 1.7017e-004</B>
#         <C>-2.5341e-006</C>
#         <D0> 2.5826e+000</D0>
#         <D1> 1.92634e-004</D1>
#         <D2>-4.64803e-002</D2>
#         <E> 3.6000e-002</E>
#         <Tau20> 1.1800</Tau20>
#         <H1>-3.3000e-002</H1>
#         <H2> 5.0000e+003</H2>
#         <H3> 1.4500e+003</H3>
#       </CalibrationCoefficients>
#     </OxygenSensor>
#   </sensor>
#   <sensor Channel="5" >
#     <!-- A/D voltage 1, PAR/Logarithmic, Satlantic -->
#     <PARLog_SatlanticSensor SensorID="76" >
#       <SerialNumber>1122</SerialNumber>
#       <CalibrationDate>08-May-2019</CalibrationDate>
#       <a0>9.7456e-001</a0>
#       <a1>8.1640e-001</a1>
#       <Im>1.3589e+000</Im>
#       <Multiplier>1.0000e+000</Multiplier>
#     </PARLog_SatlanticSensor>
#   </sensor>
#   <sensor Channel="6" >
#     <!-- A/D voltage 2, pH -->
#     <pH_Sensor SensorID="43" >
#       <SerialNumber>0363</SerialNumber>
#       <CalibrationDate>15-Apr-19</CalibrationDate>
#       <Slope>4.5952</Slope>
#       <Offset>2.5370</Offset>
#     </pH_Sensor>
#   </sensor>
#   <sensor Channel="7" >
#     <!-- A/D voltage 3, Oxidation Reduction Potential -->
#     <OxidationReductionPotentialSensor SensorID="41" >
#       <SerialNumber>0363</SerialNumber>
#       <CalibrationDate>15-Apr-19</CalibrationDate>
#       <B>2.499480</B>
#       <M>-0.496195</M>
#       <Offset>0.0</Offset>
#     </OxidationReductionPotentialSensor>
#   </sensor>
#   <sensor Channel="8" >
#     <!-- A/D voltage 4, Fluorometer, WET Labs ECO-AFL/FL -->
#     <FluoroWetlabECO_AFL_FL_Sensor SensorID="20" >
#       <SerialNumber>FLNTURT-2496</SerialNumber>
#       <CalibrationDate>08-May-2019</CalibrationDate>
#       <ScaleFactor>5.00000000e+001</ScaleFactor>
#       <!-- Dark output -->
#       <Vblank>0.0550</Vblank>
#     </FluoroWetlabECO_AFL_FL_Sensor>
#   </sensor>
#   <sensor Channel="9" >
#     <!-- A/D voltage 5, Turbidity Meter, WET Labs, ECO-NTU -->
#     <TurbidityMeter SensorID="67" >
#       <SerialNumber>FLNTURT-2496</SerialNumber>
#       <CalibrationDate>08-May-2019</CalibrationDate>
#       <ScaleFactor>189.000000</ScaleFactor>
#       <!-- Dark output -->
#       <DarkVoltage>0.071000</DarkVoltage>
#     </TurbidityMeter>
#   </sensor>
# </Sensors>
# datcnv_date = Jul 25 2019 11:40:37, 7.26.7.129 [datcnv_vars = 15]
# datcnv_in = C:\DATA\MSN2_CTD_CASTS_072419\072519_bvr50_c.hex C:\DATA\SBE19plusV2_7809.xmlcon
# datcnv_skipover = 0
# datcnv_ox_hysteresis_correction = yes
# datcnv_ox_tau_correction = yes
# filter_date = Jul 25 2019 11:40:57, 7.26.7.129
# filter_in = C:\DATA\MSN2_CTD_CASTS_072419\072519_bvr50_c.cnv
# filter_low_pass_tc_A = 0.030
# filter_low_pass_tc_B = 0.150
# filter_low_pass_A_vars = prdM prdE tv290C density00
# filter_low_pass_B_vars = depFM dz/dtM sbeox0Mg/L sbeox0PS specc c0uS/cm flECO-AFL ph orp par/sat/log turbWETntu0
# alignctd_date = Jul 25 2019 11:41:13, 7.26.7.129
# alignctd_in = C:\DATA\MSN2_CTD_CASTS_072419\072519_bvr50_c.cnv
# alignctd_adv = dz/dtM 1.000, sbeox0Mg/L 1.000, sbeox0PS 1.000, specc 1.000, c0uS/cm 1.000, flECO-AFL 1.000, ph 1.000, orp 1.000, turbWETntu0 1.000                                                                                 
# file_type = ascii
*END*
     -0.616 -1.052e-13     8.0795     99.626      0.604   0.616422    -0.1098      6.636 -1240.7455 2.1699e+03    -0.5540     -0.604     -0.876    26.0186   996.7869 0.0000e+00
     -0.616 -1.157e-12     8.0795     99.628      0.615   0.628280    -0.1023      6.636 -1240.7455 2.1684e+03    -0.5155     -0.604     -0.876    26.0193   996.7867 0.0000e+00
     -0.616 -1.272e-11     8.0795     99.628      0.609   0.621776    -0.0927      6.634 -1240.7455 2.1621e+03    -0.4643     -0.604     -0.876    26.0197   996.7866 0.0000e+00
     -0.616 -1.400e-10     8.0786     99.617      0.589   0.601155    -0.0970      6.628 -1240.7455 2.1438e+03    -0.4590     -0.604     -0.877    26.0201   996.7865 0.0000e+00
     -0.616 -1.540e-09     8.0786     99.618      0.558   0.569023    -0.1106      6.615 -1240.7455 2.1049e+03    -0.5179     -0.604     -0.877    26.0204   996.7864 0.0000e+00
     -0.616 -1.694e-08     8.0801     99.637      0.539   0.550058    -0.1186      6.615 -1240.7455 2.0473e+03    -0.5526     -0.604     -0.877    26.0210   996.7862 0.0000e+00
     -0.617 -1.863e-07     8.0812     99.652      0.551   0.561931    -0.1156      6.646 -1240.7455 1.9606e+03    -0.5182     -0.605     -0.877    26.0216   996.7861 0.0000e+00
     -0.617 -1.863e-07     8.0823     99.667      0.574   0.585861    -0.1180      6.660 -1240.7455 1.6680e+03    -0.4302     -0.605     -0.878    26.0218   996.7861 0.0000e+00
     -0.617 -1.693e-08     8.0835     99.682      0.574   0.585959    -0.1216      6.621 -1240.7455 1.3460e+03    -0.3402     -0.604     -0.877    26.0223   996.7859 0.0000e+00
     -0.617 -1.539e-09     8.0833     99.679      0.552   0.563117    -0.1075      6.592 -1240.7455 1.3278e+03    -0.3156     -0.605     -0.876    26.0226   996.7859 0.0000e+00
     -0.617 -1.400e-10     8.0825     99.669      0.552   0.563117    -0.0947      6.602 -1240.7455 1.2719e+03    -0.3296     -0.604     -0.877    26.0232   996.7858 0.0000e+00
     -0.617 -1.272e-11     8.0837     99.684      0.574   0.585958    -0.1056      6.627 -1240.7455 1.0559e+03    -0.3778     -0.605     -0.877    26.0236   996.7856 0.0000e+00
     -0.617 -1.156e-12     8.0852     99.702      0.574   0.585855    -0.1172      6.653 -1240.7455 9.6421e+02    -0.4718     -0.605     -0.878    26.0239   996.7855 0.0000e+00
     -0.617 -9.687e-14     8.0850     99.700      0.551   0.561862    -0.1137      6.670 -1240.7455 1.0027e+03    -0.5172     -0.605     -0.878    26.0240   996.7855 0.0000e+00
     -0.616 8.1485e-14     8.0855     99.706      0.539   0.549295    -0.1074      6.676 -1240.7455 1.0520e+03    -0.5332     -0.604     -0.877    26.0240   996.7855 0.0000e+00
     -0.616 1.0006e-12     8.0874     99.730      0.550   0.560625    -0.1018      6.672 -1240.7455 1.0616e+03    -0.5660     -0.604     -0.877    26.0242   996.7854 0.0000e+00
     -0.616 1.1016e-11     8.0895     99.755      0.561   0.572135    -0.0981      6.662 -1240.7455 1.0446e+03    -0.5531     -0.605     -0.877    26.0243   996.7854 0.0000e+00
     -0.616 1.2118e-10     8.0909     99.770      0.551   0.561749    -0.0969      6.674 -1240.7455 1.0289e+03    -0.5082     -0.604     -0.877    26.0245   996.7853 0.0000e+00
     -0.617 1.3330e-09     8.0919     99.780      0.551   0.561761    -0.1047      6.707 -1240.7451 1.0434e+03    -0.4823     -0.605     -0.877    26.0244   996.7854 0.0000e+00
     -0.617 1.4663e-08     8.0936     99.800      0.561   0.572283    -0.1142      6.736 -1240.7414 1.0862e+03    -0.5024     -0.605     -0.878    26.0242   996.7854 0.0000e+00
     -0.617 1.6129e-07     8.0942     99.807      0.551   0.562252    -0.1162      6.751 -1240.7007 1.1434e+03    -0.5215     -0.604     -0.877    26.0237   996.7856 0.0000e+00
     -0.617      0.000     8.0937     99.802      0.556   0.567201    -0.1204      6.751 -1240.2524 1.2150e+03    -0.4836     -0.605     -0.876    26.0227   996.7858 0.0000e+00
     -0.617      0.000     8.0927     99.790      0.619   0.632121    -0.1224      6.660 -1235.3213 1.2909e+03    -0.4711     -0.604     -0.877    26.0213   996.7862 0.0000e+00
     -0.617      0.000     8.0914     99.775      0.947   0.967037    -0.1232      5.750 -1181.0791 1.3536e+03    -0.3694     -0.605     -0.878    26.0208   996.7863 0.0000e+00
     -0.617      0.002     8.0904     99.768      3.964   4.046409    -0.1903      4.730  -584.4151 1.4132e+03     1.3357     -0.605     -0.878    26.0203   996.7865 0.0000e+00
     -0.617      0.011     8.0877     99.763     10.579  10.802599    -0.3181      5.322   340.3092 1.4627e+03     4.4794     -0.605     -0.878    26.0208   996.7862 0.0000e+00
     -0.617      0.031     8.0820     99.757     18.179  18.576775    -0.3855      6.536   574.4267 1.2634e+03     6.1790     -0.605     -0.878    26.0209   996.7864 0.0000e+00
     -0.616      0.063     8.0755     99.754     24.452  25.003995    -0.3365      7.310   407.8790 9.1976e+02     6.7452     -0.605     -0.877    26.0223   996.7858 0.0000e+00
     -0.609      0.104     8.0711     99.763     27.249  27.880702     0.3773      7.918   381.7286 1.0755e+03    11.7509     -0.605     -0.878    26.0214   996.7864 0.0000e+00
     -0.582      0.148     8.0713     99.812     27.527  28.177865     1.7075      8.352   375.4302 1.6001e+03    20.8870     -0.581     -0.843    26.0296   996.7860 0.0000e+00
     -0.530      0.187     8.0780     99.931     27.554  28.216310     2.4388      8.626   363.0439 1.9017e+03    25.8084     -0.525     -0.761    26.0720   996.7769 0.0000e+00
     -0.461      0.217     8.0942    100.163     27.546  28.218660     2.4653      8.796   350.0987 1.9952e+03    25.6686     -0.453     -0.657    26.1210   996.7667 0.0000e+00
     -0.388      0.237     8.1213    100.528     27.525  28.206287     2.0547      8.920   349.0032 2.0597e+03    19.4266     -0.378     -0.548    26.1542   996.7586 0.0000e+00
     -0.321      0.243     8.1597    101.031     27.505  28.193615     1.3056      9.006   344.0333 2.1242e+03     7.9821     -0.311     -0.450    26.1786   996.7521 0.0000e+00
     -0.264      0.233     8.2092    101.664     27.498  28.192349     0.8992      9.056   335.0930 2.1801e+03     1.7356     -0.258     -0.374    26.1971   996.7476 0.0000e+00
     -0.209      0.211     8.2633    102.344     27.494  28.190985     0.8688      9.079   338.3035 2.2034e+03     1.1203     -0.209     -0.304    26.2147   996.7429 0.0000e+00
     -0.151      0.182     8.3128    102.958     27.480  28.177134     0.8953      9.087   336.6477 2.1937e+03     1.0020     -0.148     -0.214    26.2308   996.7389 0.0000e+00
     -0.097      0.153     8.3507    103.425     27.456  28.151767     0.9504      9.087   327.9790 2.1702e+03     0.9278     -0.088     -0.127    26.2457   996.7352 0.0000e+00
     -0.061      0.124     8.3765    103.744     27.442  28.138048     0.9886      9.083   330.3707 2.1431e+03     0.9111     -0.052     -0.075    26.2589   996.7318 0.0000e+00
     -0.042      0.096     8.3923    103.940     27.442  28.138152     0.9934      9.078   336.4839 2.1235e+03     0.9310     -0.038     -0.055    26.2643   996.7304 0.0000e+00
     -0.031      0.071     8.3977    104.005     27.457  28.153026     0.9912      9.072   337.7943 2.0844e+03     0.9392     -0.031     -0.047    26.2628   996.7309 0.0000e+00
     -0.019      0.052     8.3888    103.897     27.494  28.190988     0.9882      9.061   337.1800 1.9742e+03     0.9774     -0.019     -0.028    26.2615   996.7313 0.0000e+00
     -0.006      0.040     8.3463    103.377     27.517  28.216480     0.9829      9.045   336.1980 1.7448e+03     1.0652     -0.005     -0.007    26.2608   996.7315 0.0000e+00
      0.005      0.034     8.2569    102.278     27.506  28.207473     0.9787      9.027   335.3853 1.4790e+03     1.1165      0.006      0.009    26.2602   996.7317 0.0000e+00
      0.012      0.029     8.1225    100.624     27.504  28.208969     0.9726      9.009   334.4086 1.3055e+03     1.1058      0.012      0.018    26.2602   996.7318 0.0000e+00
      0.017      0.022     7.9220     98.153     27.525  28.234584     0.9698      8.994   332.9931 1.2910e+03     1.0988      0.015      0.023    26.2607   996.7317 0.0000e+00
      0.022      0.016     7.6478     94.767     27.550  28.263403     0.9713      8.979   331.5204 1.4380e+03     1.0981      0.021      0.031    26.2630   996.7311 0.0000e+00
      0.027      0.012     7.3362     90.914     27.586  28.303644     0.9730      8.963   330.4549 1.5332e+03     1.0975      0.027      0.041    26.2677   996.7298 0.0000e+00
      0.028      0.009     7.0247     87.062     27.619  28.340461     0.9810      8.944   329.7460 1.4958e+03     1.0916      0.028      0.041    26.2746   996.7280 0.0000e+00
      0.027      0.009     6.7548     83.723     27.605  28.327887     0.9994      8.925   329.1447 1.5029e+03     1.0596      0.026      0.037    26.2823   996.7259 0.0000e+00
      0.027      0.010     6.5742     81.490     27.555  28.278506     1.0223      8.908   328.6052 1.5745e+03     1.0372      0.026      0.038    26.2893   996.7240 0.0000e+00
      0.030      0.013     6.4877     80.423     27.526  28.250976     1.0404      8.893   328.3852 1.5874e+03     1.0516      0.029      0.043    26.2945   996.7227 0.0000e+00
      0.034      0.018     6.4637     80.131     27.522  28.248802     1.0448      8.874   328.3770 1.5082e+03     1.0693      0.032      0.047    26.2988   996.7216 0.0000e+00
      0.039      0.020     6.4732     80.253     27.524  28.252225     1.0235      8.854   327.8175 1.3859e+03     1.0875      0.037      0.054    26.3029   996.7205 0.0000e+00
      0.047      0.020     6.4902     80.468     27.562  28.292360     0.9911      8.842   326.6975 1.6241e+03     1.0746      0.046      0.065    26.3071   996.7194 0.0000e+00
      0.055      0.017     6.4965     80.549     27.621  28.353401     0.9745      8.835   325.6764 2.2865e+03     1.0449      0.054      0.079    26.3114   996.7183 0.0000e+00
      0.061      0.012     6.4848     80.405     27.622  28.355813     0.9782      8.826   325.1929 2.3690e+03     1.0554      0.062      0.090    26.3147   996.7174 0.0000e+00
      0.062      0.006     6.4440     79.900     27.587  28.321523     1.0182      8.814   325.2404 1.7515e+03     1.0712      0.063      0.091    26.3173   996.7167 0.0000e+00
      0.060      0.001     6.3662     78.937     27.586  28.319473     1.0767      8.799   325.3904 1.3866e+03     1.0716      0.058      0.084    26.3195   996.7161 0.0000e+00
      0.057     -0.003     6.2592     77.610     27.597  28.331030     1.1050      8.785   325.1989 1.3428e+03     1.0928      0.055      0.079    26.3212   996.7156 0.0000e+00
      0.056     -0.006     6.1400     76.135     27.599  28.334360     1.1098      8.772   324.7325 1.3932e+03     1.1308      0.055      0.079    26.3229   996.7151 0.0000e+00
      0.056     -0.007     6.0363     74.850     27.624  28.359742     1.1088      8.761   324.3975 1.5193e+03     1.2033      0.055      0.080    26.3239   996.7149 0.0000e+00
      0.055     -0.007     5.9825     74.185     27.647  28.384147     1.1013      8.749   324.0735 1.5172e+03     1.3138      0.054      0.077    26.3240   996.7149 0.0000e+00
