* Sea-Bird SBE19plus  Data File:
* FileName = C:\DATA\MSN2_CTD_CASTS_072419\072519_bvr50_a_0002.hex
* Software version 2.8.0.119 SB_Terminal.dll
* Temperature SN = 7809
* Conductivity SN = 7809
* System UpLoad Time = Jul 25 2019 07:19:02
* <ApplicationData>
* <Seaterm232>
* <SoftwareVersion>2.8.0.119</SoftwareVersion>
* <BuildDate>07-Nov-2018</BuildDate>
* </Seaterm232>
* </ApplicationData>
* cast   2 25 Jul 2019 07:07:51 samples 963 to 1783, avg = 1, stop = mag switch
# nquan = 16
# nvalues = 654                         
# units = specified
# name 0 = depFM: Depth [fresh water, m]
# name 1 = dz/dtM: Descent Rate [m/s]
# name 2 = sbeox0Mg/L: Oxygen, SBE 43 [mg/l]
# name 3 = sbeox0PS: Oxygen, SBE 43 [% saturation]
# name 4 = specc: Specific Conductance [uS/cm]
# name 5 = c0uS/cm: Conductivity [uS/cm]
# name 6 = flECO-AFL: Fluorescence, WET Labs ECO-AFL/FL [mg/m^3]
# name 7 = ph: pH
# name 8 = orp: Oxidation Reduction Potential [mV]
# name 9 = par/sat/log: PAR/Logarithmic, Satlantic
# name 10 = turbWETntu0: Turbidity, WET Labs ECO [NTU]
# name 11 = prdM: Pressure, Strain Gauge [db]
# name 12 = prdE: Pressure, Strain Gauge [psi]
# name 13 = tv290C: Temperature [ITS-90, deg C]
# name 14 = density00: Density [density, kg/m^3]
# name 15 = flag:  0.000e+00
# span 0 =     -0.638,     10.565       
# span 1 =     -0.022,      0.186       
# span 2 =    -0.1772,     9.3023       
# span 3 =     -1.764,    102.546       
# span 4 =      0.580,    224.170       
# span 5 =   0.474094, 150.087483       
# span 6 =    -0.1407,    14.6981       
# span 7 =      6.373,      9.045       
# span 8 =    -2.2302,   930.6264       
# span 9 = 1.2362e-01, 1.1490e+02       
# span 10 =    -0.2532,    10.5162      
# span 11 =     -0.626,     10.362      
# span 12 =     -0.909,     15.029      
# span 13 =     8.4588,    25.8817      
# span 14 =   996.8396,   999.9529      
# span 15 = 0.0000e+00, 0.0000e+00      
# interval = seconds: 0.25
# start_time = Jul 25 2019 07:07:51 [Instrument's time stamp, header]
# bad_flag = -9.990e-29
# <Sensors count="9" >
#   <sensor Channel="1" >
#     <!-- Count, Temperature -->
#     <TemperatureSensor SensorID="58" >
#       <SerialNumber>7809</SerialNumber>
#       <CalibrationDate>24-Mar-19</CalibrationDate>
#       <A0>1.21792325e-003</A0>
#       <A1>2.81669265e-004</A1>
#       <A2>-1.60333336e-006</A2>
#       <A3>1.98414625e-007</A3>
#       <Slope>1.00000000</Slope>
#       <Offset>0.0000</Offset>
#     </TemperatureSensor>
#   </sensor>
#   <sensor Channel="2" >
#     <!-- Frequency 0, Conductivity -->
#     <ConductivitySensor SensorID="3" >
#       <SerialNumber>7809</SerialNumber>
#       <CalibrationDate>24-Mar-19</CalibrationDate>
#       <UseG_J>1</UseG_J>
#       <!-- Cell const and series R are applicable only for wide range sensors. -->
#       <SeriesR>0.0000</SeriesR>
#       <CellConst>2000.0000</CellConst>
#       <ConductivityType>0</ConductivityType>
#       <Coefficients equation="0" >
#         <A>0.00000000e+000</A>
#         <B>0.00000000e+000</B>
#         <C>0.00000000e+000</C>
#         <D>0.00000000e+000</D>
#         <M>0.0</M>
#         <CPcor>-9.57000000e-008</CPcor>
#       </Coefficients>
#       <Coefficients equation="1" >
#         <G>-1.00589325e+000</G>
#         <H>1.26816302e-001</H>
#         <I>-1.51560448e-004</I>
#         <J>2.67137274e-005</J>
#         <CPcor>-9.57000000e-008</CPcor>
#         <CTcor>3.2500e-006</CTcor>
#         <!-- WBOTC not applicable unless ConductivityType = 1. -->
#         <WBOTC>0.00000000e+000</WBOTC>
#       </Coefficients>
#       <Slope>1.00000000</Slope>
#       <Offset>0.00000</Offset>
#     </ConductivitySensor>
#   </sensor>
#   <sensor Channel="3" >
#     <!-- Count, Pressure, Strain Gauge -->
#     <PressureSensor SensorID="46" >
#       <SerialNumber>7809</SerialNumber>
#       <CalibrationDate>11-Mar-19</CalibrationDate>
#       <PA0>4.56561833e-002</PA0>
#       <PA1>4.85095118e-004</PA1>
#       <PA2>-2.88327090e-012</PA2>
#       <PTEMPA0>-5.48784562e+001</PTEMPA0>
#       <PTEMPA1>5.53756816e+001</PTEMPA1>
#       <PTEMPA2>-5.86727098e-001</PTEMPA2>
#       <PTCA0>5.25246745e+005</PTCA0>
#       <PTCA1>1.22304214e+001</PTCA1>
#       <PTCA2>-3.56745036e-001</PTCA2>
#       <PTCB0>2.51668750e+001</PTCB0>
#       <PTCB1>3.75000000e-004</PTCB1>
#       <PTCB2>0.00000000e+000</PTCB2>
#       <Offset>0.000000</Offset>
#     </PressureSensor>
#   </sensor>
#   <sensor Channel="4" >
#     <!-- A/D voltage 0, Oxygen, SBE 43 -->
#     <OxygenSensor SensorID="38" >
#       <SerialNumber>0434</SerialNumber>
#       <CalibrationDate>13-Apr-19</CalibrationDate>
#       <Use2007Equation>1</Use2007Equation>
#       <CalibrationCoefficients equation="0" >
#         <!-- Coefficients for Owens-Millard equation. -->
#         <Boc>0.0000</Boc>
#         <Soc>0.0000e+000</Soc>
#         <offset>0.0000</offset>
#         <Pcor>0.00e+000</Pcor>
#         <Tcor>0.0000</Tcor>
#         <Tau>0.0</Tau>
#       </CalibrationCoefficients>
#       <CalibrationCoefficients equation="1" >
#         <!-- Coefficients for Sea-Bird equation - SBE calibration in 2007 and later. -->
#         <Soc>4.2007e-001</Soc>
#         <offset>-0.6109</offset>
#         <A>-4.3656e-003</A>
#         <B> 1.7017e-004</B>
#         <C>-2.5341e-006</C>
#         <D0> 2.5826e+000</D0>
#         <D1> 1.92634e-004</D1>
#         <D2>-4.64803e-002</D2>
#         <E> 3.6000e-002</E>
#         <Tau20> 1.1800</Tau20>
#         <H1>-3.3000e-002</H1>
#         <H2> 5.0000e+003</H2>
#         <H3> 1.4500e+003</H3>
#       </CalibrationCoefficients>
#     </OxygenSensor>
#   </sensor>
#   <sensor Channel="5" >
#     <!-- A/D voltage 1, PAR/Logarithmic, Satlantic -->
#     <PARLog_SatlanticSensor SensorID="76" >
#       <SerialNumber>1122</SerialNumber>
#       <CalibrationDate>08-May-2019</CalibrationDate>
#       <a0>9.7456e-001</a0>
#       <a1>8.1640e-001</a1>
#       <Im>1.3589e+000</Im>
#       <Multiplier>1.0000e+000</Multiplier>
#     </PARLog_SatlanticSensor>
#   </sensor>
#   <sensor Channel="6" >
#     <!-- A/D voltage 2, pH -->
#     <pH_Sensor SensorID="43" >
#       <SerialNumber>0363</SerialNumber>
#       <CalibrationDate>15-Apr-19</CalibrationDate>
#       <Slope>4.5952</Slope>
#       <Offset>2.5370</Offset>
#     </pH_Sensor>
#   </sensor>
#   <sensor Channel="7" >
#     <!-- A/D voltage 3, Oxidation Reduction Potential -->
#     <OxidationReductionPotentialSensor SensorID="41" >
#       <SerialNumber>0363</SerialNumber>
#       <CalibrationDate>15-Apr-19</CalibrationDate>
#       <B>2.499480</B>
#       <M>-0.496195</M>
#       <Offset>0.0</Offset>
#     </OxidationReductionPotentialSensor>
#   </sensor>
#   <sensor Channel="8" >
#     <!-- A/D voltage 4, Fluorometer, WET Labs ECO-AFL/FL -->
#     <FluoroWetlabECO_AFL_FL_Sensor SensorID="20" >
#       <SerialNumber>FLNTURT-2496</SerialNumber>
#       <CalibrationDate>08-May-2019</CalibrationDate>
#       <ScaleFactor>5.00000000e+001</ScaleFactor>
#       <!-- Dark output -->
#       <Vblank>0.0550</Vblank>
#     </FluoroWetlabECO_AFL_FL_Sensor>
#   </sensor>
#   <sensor Channel="9" >
#     <!-- A/D voltage 5, Turbidity Meter, WET Labs, ECO-NTU -->
#     <TurbidityMeter SensorID="67" >
#       <SerialNumber>FLNTURT-2496</SerialNumber>
#       <CalibrationDate>08-May-2019</CalibrationDate>
#       <ScaleFactor>189.000000</ScaleFactor>
#       <!-- Dark output -->
#       <DarkVoltage>0.071000</DarkVoltage>
#     </TurbidityMeter>
#   </sensor>
# </Sensors>
# datcnv_date = Jul 25 2019 11:40:36, 7.26.7.129 [datcnv_vars = 15]
# datcnv_in = C:\DATA\MSN2_CTD_CASTS_072419\072519_bvr50_b.hex C:\DATA\SBE19plusV2_7809.xmlcon
# datcnv_skipover = 0
# datcnv_ox_hysteresis_correction = yes
# datcnv_ox_tau_correction = yes
# filter_date = Jul 25 2019 11:40:57, 7.26.7.129
# filter_in = C:\DATA\MSN2_CTD_CASTS_072419\072519_bvr50_b.cnv
# filter_low_pass_tc_A = 0.030
# filter_low_pass_tc_B = 0.150
# filter_low_pass_A_vars = prdM prdE tv290C density00
# filter_low_pass_B_vars = depFM dz/dtM sbeox0Mg/L sbeox0PS specc c0uS/cm flECO-AFL ph orp par/sat/log turbWETntu0
# alignctd_date = Jul 25 2019 11:41:13, 7.26.7.129
# alignctd_in = C:\DATA\MSN2_CTD_CASTS_072419\072519_bvr50_b.cnv
# alignctd_adv = dz/dtM 1.000, sbeox0Mg/L 1.000, sbeox0PS 1.000, specc 1.000, c0uS/cm 1.000, flECO-AFL 1.000, ph 1.000, orp 1.000, turbWETntu0 1.000                                                                                 
# file_type = ascii
*END*
     -0.638      0.000     9.3023     93.835      0.580   0.474094    -0.1407      6.795    -2.2302 1.1482e+02    -0.2532     -0.626     -0.908    15.7918   998.9813 0.0000e+00
     -0.638      0.002     9.2975     93.841      0.912   0.750321    -0.1398      6.912   302.7131 1.1332e+02    -0.2524     -0.625     -0.907    15.7894   998.9816 0.0000e+00
     -0.638      0.008     9.2407     93.810      3.209   2.687699    -0.1128      7.162   864.8238 1.1032e+02    -0.2394     -0.626     -0.908    15.7932   998.9812 0.0000e+00
     -0.638      0.023     9.0693     93.741     10.291   8.816903    -0.0578      7.396   930.6264 1.1060e+02    -0.1623     -0.626     -0.908    15.7871   998.9819 0.0000e+00
     -0.637      0.045     8.8238     93.656     20.584  18.001415    -0.0294      7.629   488.3089 1.1395e+02    -0.1056     -0.626     -0.908    15.7966   998.9808 0.0000e+00
     -0.632      0.074     8.6066     93.576     27.739  24.721752    -0.0293      7.924   222.2005 1.1449e+02    -0.0781     -0.626     -0.909    15.7808   998.9827 0.0000e+00
     -0.612      0.106     8.4478     93.522     29.669  26.909492    -0.0218      8.213   192.6122 1.1279e+02     0.1698     -0.609     -0.883    15.8218   998.9772 0.0000e+00
     -0.574      0.137     8.3326     93.518     29.547  27.200397     0.0616      8.447   192.6800 1.1252e+02     2.8918     -0.565     -0.818    16.7681   998.8207 0.0000e+00
     -0.527      0.161     8.2443     93.568     29.279  27.287957     0.2152      8.603   194.6272 1.1320e+02     7.8612     -0.519     -0.752    18.3711   998.5374 0.0000e+00
     -0.477      0.173     8.1665     93.677     28.919  27.270746     0.3012      8.686   196.3672 1.1206e+02    10.5057     -0.470     -0.682    19.5330   998.3140 0.0000e+00
     -0.423      0.169     8.0993     93.853     28.505  27.183071     0.3383      8.729   197.3703 1.0796e+02    10.5162     -0.411     -0.597    20.4015   998.1349 0.0000e+00
     -0.374      0.152     8.0511     94.092     28.105  27.053084     0.7072      8.771   198.6684 1.0420e+02     8.2181     -0.361     -0.525    21.0786   997.9908 0.0000e+00
     -0.335      0.127     8.0254     94.387     27.757  26.904852     1.3888      8.828   200.6190 1.0370e+02     3.9224     -0.327     -0.474    21.5887   997.8782 0.0000e+00
     -0.307      0.101     8.0159     94.703     27.499  26.786797     1.7560      8.889   201.7679 1.0557e+02     1.5751     -0.296     -0.430    22.1555   997.7507 0.0000e+00
     -0.289      0.077     8.0114     94.995     27.305  26.704392     1.7837      8.944   202.4074 1.0605e+02     1.3681     -0.280     -0.406    22.7125   997.6217 0.0000e+00
     -0.280      0.058     8.0062     95.239     27.110  26.606510     1.7754      8.989   203.4463 1.0129e+02     1.3546     -0.276     -0.400    23.1706   997.5135 0.0000e+00
     -0.272      0.046     8.0038     95.430     26.925  26.491610     1.7509      9.020   204.6064 9.4479e+01     1.3461     -0.269     -0.389    23.4971   997.4350 0.0000e+00
     -0.262      0.037     8.0034     95.547     26.788  26.393738     1.7302      9.038   205.7654 9.0214e+01     1.3307     -0.259     -0.374    23.7150   997.3822 0.0000e+00
     -0.251      0.033     7.9990     95.589     26.675  26.311369     1.7247      9.045   206.9637 8.7401e+01     1.3317     -0.245     -0.356    23.8952   997.3381 0.0000e+00
     -0.241      0.031     7.9887     95.599     26.579  26.257005     1.7448      9.044   207.8239 8.5067e+01     1.3264     -0.234     -0.340    24.0885   997.2904 0.0000e+00
     -0.236      0.029     7.9760     95.589     26.523  26.244008     1.7827      9.038   208.0779 8.4809e+01     1.2987     -0.231     -0.334    24.2159   997.2587 0.0000e+00
     -0.231      0.029     7.9717     95.571     26.551  26.281172     1.8012      9.029   208.3139 8.6880e+01     1.2913     -0.228     -0.330    24.2629   997.2471 0.0000e+00
     -0.226      0.032     7.9838     95.574     26.638  26.325728     1.7960      9.019   209.1287 8.9806e+01     1.3360     -0.221     -0.321    24.2993   997.2380 0.0000e+00
     -0.219      0.036     8.0065     95.597     26.663  26.275148     1.7979      9.007   210.4447 9.3315e+01     1.3805     -0.216     -0.313    24.3784   997.2182 0.0000e+00
     -0.209      0.040     8.0308     95.639     26.639  26.177014     1.8234      8.997   211.7482 9.5551e+01     1.3708     -0.209     -0.302    24.4919   997.1898 0.0000e+00
     -0.194      0.042     8.0520     95.699     26.674  26.154126     1.8445      8.987   212.8444 9.5237e+01     1.3167     -0.191     -0.276    24.5292   997.1805 0.0000e+00
     -0.179      0.043     8.0679     95.761     26.813  26.252085     1.8453      8.974   213.8906 9.4548e+01     1.2842     -0.171     -0.249    24.4291   997.2058 0.0000e+00
     -0.169      0.040     8.0791     95.843     27.054  26.473209     1.8493      8.959   214.8478 9.3714e+01     1.3043     -0.165     -0.240    24.2624   997.2474 0.0000e+00
     -0.161      0.035     8.0890     95.979     27.315  26.734175     1.8585      8.943   215.9002 9.2728e+01     1.3640     -0.159     -0.232    24.1138   997.2843 0.0000e+00
     -0.151      0.028     8.1180     96.382     27.500  26.933226     1.8619      8.926   217.1499 9.2926e+01     1.4161     -0.146     -0.212    24.0083   997.3104 0.0000e+00
     -0.143      0.022     8.2379     97.884     27.586  27.040144     1.8638      8.908   218.4286 9.4226e+01     1.3768     -0.139     -0.201    23.9338   997.3289 0.0000e+00
     -0.140      0.017     8.4559    100.572     27.592  27.075312     1.8646      8.889   219.5736 9.5374e+01     1.3140     -0.137     -0.199    23.9050   997.3362 0.0000e+00
     -0.139      0.012     8.6120    102.546     27.587  27.104717     1.8886      8.870   220.5836 9.5639e+01     1.3124     -0.136     -0.197    23.9247   997.3314 0.0000e+00
     -0.136      0.008     8.5778    102.266     27.587  27.141955     1.9375      8.851   221.6055 9.5575e+01     1.3245     -0.134     -0.194    23.9604   997.3226 0.0000e+00
     -0.134      0.005     8.3743     99.964     27.553  27.144956     1.9615      8.834   222.6370 9.5541e+01     1.3298     -0.132     -0.191    24.0016   997.3126 0.0000e+00
     -0.133      0.003     8.0590     96.309     27.515  27.141052     1.9620      8.819   223.6771 9.5507e+01     1.3437     -0.131     -0.190    24.0532   997.2997 0.0000e+00
     -0.133      0.001     7.6783     91.854     27.501  27.158242     1.9705      8.805   224.7166 9.5490e+01     1.3611     -0.131     -0.190    24.1173   997.2838 0.0000e+00
     -0.133     -0.001     7.2907     87.295     27.479  27.162523     1.9851      8.795   225.6558 9.5480e+01     1.3771     -0.130     -0.189    24.1882   997.2664 0.0000e+00
     -0.133     -0.002     6.9473     83.246     27.424  27.129408     1.9821      8.786   226.4292 9.5529e+01     1.3732     -0.130     -0.189    24.2574   997.2491 0.0000e+00
     -0.134     -0.002     6.6718     79.998     27.349  27.075089     1.9691      8.779   227.0986 9.5605e+01     1.3470     -0.131     -0.190    24.3164   997.2344 0.0000e+00
     -0.136     -0.002     6.4801     77.749     27.267  27.013326     2.0012      8.773   227.8133 9.5700e+01     1.3553     -0.133     -0.192    24.3729   997.2202 0.0000e+00
     -0.137     -0.003     6.3754     76.538     27.189  26.953644     2.0749      8.767   228.6178 9.5972e+01     1.3752     -0.135     -0.195    24.4242   997.2074 0.0000e+00
     -0.137     -0.003     6.3319     76.060     27.143  26.924483     2.1153      8.760   229.5110 9.6275e+01     1.3573     -0.135     -0.196    24.4584   997.1988 0.0000e+00
     -0.137     -0.002     6.3169     75.921     27.117  26.914523     2.1083      8.750   230.4390 9.6402e+01     1.3368     -0.134     -0.194    24.4935   997.1899 0.0000e+00
     -0.137     -0.001     6.3099     75.861     27.089  26.896694     2.0854      8.739   231.3205 9.6512e+01     1.3234     -0.134     -0.195    24.5311   997.1804 0.0000e+00
     -0.138     -0.000     6.2974     75.722     27.088  26.899255     2.0468      8.728   232.0823 9.6620e+01     1.3260     -0.136     -0.197    24.5596   997.1733 0.0000e+00
     -0.138 3.8950e-07     6.2755     75.463     27.133  26.945486     2.0067      8.719   232.7673 9.6675e+01     1.3355     -0.136     -0.197    24.5921   997.1650 0.0000e+00
     -0.138      0.000     6.2501     75.155     27.201  27.011584     1.9812      8.709   233.5792 9.6746e+01     1.3080     -0.136     -0.197    24.6254   997.1566 0.0000e+00
     -0.138      0.000     6.2239     74.826     27.259  27.064015     1.9727      8.699   234.4133 9.6776e+01     1.2879     -0.135     -0.195    24.6414   997.1526 0.0000e+00
     -0.138      0.001     6.1957     74.464     27.275  27.071889     1.9820      8.689   235.1092 9.6697e+01     1.3221     -0.135     -0.196    24.6464   997.1513 0.0000e+00
     -0.138      0.001     6.1677     74.106     27.255  27.043331     1.9814      8.680   235.7980 9.6597e+01     1.3611     -0.135     -0.196    24.6502   997.1504 0.0000e+00
     -0.137      0.001     6.1493     73.871     27.253  27.035924     1.9654      8.673   236.4608 9.6514e+01     1.3652     -0.135     -0.195    24.6497   997.1505 0.0000e+00
     -0.137      0.001     6.1524     73.901     27.267  27.045761     1.9613      8.667   236.9283 9.6444e+01     1.3401     -0.135     -0.195    24.6392   997.1532 0.0000e+00
     -0.137      0.001     6.1800     74.229     27.258  27.035381     1.9840      8.659   237.4063 9.6512e+01     1.3200     -0.134     -0.194    24.6203   997.1580 0.0000e+00
     -0.137      0.001     6.2284     74.812     27.259  27.037300     2.0231      8.652   238.0242 9.6672e+01     1.3177     -0.134     -0.195    24.6030   997.1623 0.0000e+00
     -0.136      0.001     6.2954     75.623     27.289  27.068967     2.0445      8.647   238.5491 9.6730e+01     1.3127     -0.134     -0.194    24.5937   997.1647 0.0000e+00
     -0.136      0.001     6.3722     76.548     27.320  27.101056     2.0422      8.640   238.9344 9.6691e+01     1.2918     -0.133     -0.193    24.5888   997.1660 0.0000e+00
     -0.136      0.001     6.4416     77.381     27.327  27.108072     2.0474      8.634   239.4131 9.6716e+01     1.2622     -0.133     -0.193    24.5852   997.1669 0.0000e+00
     -0.135      0.001     6.4936     78.005     27.309  27.090364     2.0734      8.629   240.0354 9.6842e+01     1.2826     -0.133     -0.192    24.5866   997.1665 0.0000e+00
     -0.135      0.001     6.5247     78.379     27.296  27.077271     2.0959      8.625   240.5224 9.6989e+01     1.3420     -0.132     -0.191    24.5926   997.1650 0.0000e+00
     -0.135      0.001     6.5323     78.469     27.296  27.076647     2.1032      8.621   240.9987 9.7124e+01     1.3576     -0.132     -0.192    24.5951   997.1643 0.0000e+00
     -0.135      0.001     6.5182     78.299     27.303  27.082820     2.1087      8.618   241.5785 9.7139e+01     1.3397     -0.133     -0.193    24.5940   997.1646 0.0000e+00
     -0.134      0.001     6.4877     77.930     27.309  27.088463     2.1116      8.613   242.0263 9.6985e+01     1.3230     -0.132     -0.191    24.5944   997.1646 0.0000e+00
