* Sea-Bird SBE19plus  Data File:
* FileName = C:\R\Reservoirs\Data\DataNotYetUploadedToEDI\Raw_CTD\RawDownloads\072621_bvr_50_0002.hex
* Software version 2.8.0.119
* Temperature SN = 7809
* Conductivity SN = 7809
* System UpLoad Time = Jul 26 2021 15:16:59
* <ApplicationData>
* <Seaterm232>
* <SoftwareVersion>2.8.0.119</SoftwareVersion>
* <BuildDate>07-Nov-2018</BuildDate>
* </Seaterm232>
* </ApplicationData>
* <InstrumentState>
* <HardwareData DeviceType='SBE19plus' SerialNumber='01907809'>
*
*    <Manufacturer>Sea-Bird Electronics, Inc.</Manufacturer>
*
*    <FirmwareVersion>3.1.8</FirmwareVersion>
*
*    <FirmwareDate>Mar  9 2016 16:22:29</FirmwareDate>
*
*    <CommandSetVersion>1.4</CommandSetVersion>
*
*    <PCBAssembly PCBSerialNum='120721' AssemblyNum='41054J'/>
*
*    <PCBAssembly PCBSerialNum='120715' AssemblyNum='41967A'/>
*
*    <PCBAssembly PCBSerialNum='116699' AssemblyNum='41606'/>
*
*    <PCBAssembly PCBSerialNum='120719' AssemblyNum='41059D'/>
*
*    <MfgDate>28-Apr-2017</MfgDate>
*
*    <InternalSensors>
*
*       <Sensor id='Main Temperature'>
*
*          <type>temperature0</type>
*
*          <SerialNumber>01907809</SerialNumber>
*
*       </Sensor>
*
*       <Sensor id='Main Conductivity'>
*
*          <type>conductivity-0</type>
*
*          <SerialNumber>01907809</SerialNumber>
*
*       </Sensor>
*
*       <Sensor id='Main Pressure'>
*
*          <type>strain-0</type>
*
*          <SerialNumber>10586018</SerialNumber>
*
*       </Sensor>
*
*    </InternalSensors>
*
*    <ExternalSensors>
*
*       <Sensor id='volt 0'>
*
*          <type>pH</type>
*
*          <SerialNumber>27-0363</SerialNumber>
*
*       </Sensor>
*
*       <Sensor id='volt 1'>
*
*          <type>ORP</type>
*
*          <SerialNumber>27-0363</SerialNumber>
*
*       </Sensor>
*
*       <Sensor id='volt 2'>
*
*          <type>OXY</type>
*
*          <SerialNumber>43-0434</SerialNumber>
*
*       </Sensor>
*
*       <Sensor id='volt 3'>
*
*          <type>PAR</type>
*
*          <SerialNumber>1122</SerialNumber>
*
*       </Sensor>
*
*       <Sensor id='volt 4'>
*
*          <type>ECO AFL/FL</type>
*
*          <SerialNumber>FLNTURT-2496</SerialNumber>
*
*       </Sensor>
*
*       <Sensor id='volt 5'>
*
*          <type>ECO-NTU</type>
*
*          <SerialNumber>FLNTURT-2496</SerialNumber>
*
*       </Sensor>
*
*       <Sensor id='serial'>
*
*          <type>not assigned</type>
*
*          <SerialNumber>not assigned</SerialNumber>
*
*       </Sensor>
*
*    </ExternalSensors>
*
* </HardwareData>
* <StatusData DeviceType='SBE19plus' SerialNumber='01907809'>
*
*    <DateTime>2021-07-26T02:15:22</DateTime>
*
*    <LoggingState>not logging</LoggingState>
*
*    <EventSummary numEvents='0'/>
*
*    <Power>
*
*       <vMain>12.1</vMain>
*
*       <vLith>8.5</vLith>
*
*       <iMain>63.0</iMain>
*
*       <iPump>154.7</iPump>
*
*       <iExt01>21.8</iExt01>
*
*       <iExt2345>39.1</iExt2345>
*
*    </Power>
*
*    <MemorySummary>
*
*       <Bytes>184690</Bytes>
*
*       <Samples>8030</Samples>
*
*       <SamplesFree>2852758</SamplesFree>
*
*       <SampleLength>23</SampleLength>
*
*       <Profiles>3</Profiles>
*
*    </MemorySummary>
*
* </StatusData>
* <ConfigurationData DeviceType='SBE19plus' SerialNumber='01907809'>
*
*    <ProfileMode>
*
*       <ScansToAverage>1</ScansToAverage>
*
*       <MinimumCondFreq>5</MinimumCondFreq>
*
*       <PumpDelay>30</PumpDelay>
*
*       <AutoRun>no</AutoRun>
*
*       <IgnoreSwitch>no</IgnoreSwitch>
*
*    </ProfileMode>
*
*    <Battery>
*
*       <Type>alkaline</Type>
*
*       <CutOff>7.5</CutOff>
*
*    </Battery>
*
*    <DataChannels>
*
*       <ExtVolt0>yes</ExtVolt0>
*
*       <ExtVolt1>yes</ExtVolt1>
*
*       <ExtVolt2>yes</ExtVolt2>
*
*       <ExtVolt3>yes</ExtVolt3>
*
*       <ExtVolt4>yes</ExtVolt4>
*
*       <ExtVolt5>yes</ExtVolt5>
*
*       <SBE38>no</SBE38>
*
*       <WETLABS>no</WETLABS>
*
*       <OPTODE>no</OPTODE>
*
*       <SBE63>no</SBE63>
*
*       <SeaFET>no</SeaFET>
*
*       <GTD>no</GTD>
*
*    </DataChannels>
*
*    <EchoCharacters>yes</EchoCharacters>
*
*    <OutputExecutedTag>yes</OutputExecutedTag>
*
*    <OutputFormat>raw HEX</OutputFormat>
*
* </ConfigurationData>
* <CalibrationCoefficients DeviceType='SBE19plus' SerialNumber='01907809'>
*
*    <Calibration format='TEMP1' id='Main Temperature'>
*
*       <SerialNum>01907809</SerialNum>
*
*       <CalDate>17-Feb-20</CalDate>
*
*       <TA0>1.231828e-03</TA0>
*
*       <TA1>2.765479e-04</TA1>
*
*       <TA2>-9.738161e-07</TA2>
*
*       <TA3>1.725813e-07</TA3>
*
*       <TOFFSET>0.000000e+00</TOFFSET>
*
*    </Calibration>
*
*    <Calibration format='WBCOND0' id='Main Conductivity'>
*
*       <SerialNum>01907809</SerialNum>
*
*       <CalDate>17-Feb-20</CalDate>
*
*       <G>-1.004905e+00</G>
*
*       <H>1.264249e-01</H>
*
*       <I>-3.338479e-05</I>
*
*       <J>1.822406e-05</J>
*
*       <CPCOR>-9.570000e-08</CPCOR>
*
*       <CTCOR>3.250000e-06</CTCOR>
*
*       <CSLOPE>1.000000e+00</CSLOPE>
*
*    </Calibration>
*
*    <Calibration format='STRAIN0' id='Main Pressure'>
*
*       <SerialNum>10586018</SerialNum>
*
*       <CalDate>30-Jan-20</CalDate>
*
*       <PA0>-8.839367e-03</PA0>
*
*       <PA1>4.852353e-04</PA1>
*
*       <PA2>-3.463847e-12</PA2>
*
*       <PTCA0>5.254672e+05</PTCA0>
*
*       <PTCA1>5.138564e+00</PTCA1>
*
*       <PTCA2>-2.726934e-01</PTCA2>
*
*       <PTCB0>2.516687e+01</PTCB0>
*
*       <PTCB1>3.750000e-04</PTCB1>
*
*       <PTCB2>0.000000e+00</PTCB2>
*
*       <PTEMPA0>-5.396332e+01</PTEMPA0>
*
*       <PTEMPA1>5.390761e+01</PTEMPA1>
*
*       <PTEMPA2>-2.231787e-02</PTEMPA2>
*
*       <POFFSET>6.460000e-01</POFFSET>
*
*       <PRANGE>1.600000e+02</PRANGE>
*
*    </Calibration>
*
*    <Calibration format='VOLT0' id='Volt 0'>
*
*       <OFFSET>-4.920000e-02</OFFSET>
*
*       <SLOPE>1.248122e+00</SLOPE>
*
*    </Calibration>
*
*    <Calibration format='VOLT0' id='Volt 1'>
*
*       <OFFSET>-4.784000e-02</OFFSET>
*
*       <SLOPE>1.248871e+00</SLOPE>
*
*    </Calibration>
*
*    <Calibration format='VOLT0' id='Volt 2'>
*
*       <OFFSET>-4.864632e-02</OFFSET>
*
*       <SLOPE>1.248714e+00</SLOPE>
*
*    </Calibration>
*
*    <Calibration format='VOLT0' id='Volt 3'>
*
*       <OFFSET>-4.743790e-02</OFFSET>
*
*       <SLOPE>1.248571e+00</SLOPE>
*
*    </Calibration>
*
*    <Calibration format='VOLT0' id='Volt 4'>
*
*       <OFFSET>-4.671263e-02</OFFSET>
*
*       <SLOPE>1.248951e+00</SLOPE>
*
*    </Calibration>
*
*    <Calibration format='VOLT0' id='Volt 5'>
*
*       <OFFSET>-4.871053e-02</OFFSET>
*
*       <SLOPE>1.249136e+00</SLOPE>
*
*    </Calibration>
*
*    <Calibration format='FREQ0' id='external frequency channel'>
*
*       <EXTFREQSF>1.000014e+00</EXTFREQSF>
*
*    </Calibration>
*
* </CalibrationCoefficients>
* <EventCounters DeviceType='SBE19plus' SerialNumber='01907809'>
*
*    <EventSummary numEvents='0'/>
*
* </EventCounters></InstrumentState>
* <Headers>
*
* cast   2 25 Jul 2021 23:31:11 samples 2346 to 3283, avg = 1, stop = mag switch
*
# nquan = 16
# nvalues = 938                         
# units = specified
# name 0 = depFM: Depth [fresh water, m]
# name 1 = dz/dtM: Descent Rate [m/s]
# name 2 = orp: Oxidation Reduction Potential [mV]
# name 3 = sbeox0Mg/L: Oxygen, SBE 43 [mg/l]
# name 4 = sbeox0PS: Oxygen, SBE 43 [% saturation]
# name 5 = par/sat/log: PAR/Logarithmic, Satlantic
# name 6 = ph: pH
# name 7 = specc: Specific Conductance [uS/cm]
# name 8 = c0uS/cm: Conductivity [uS/cm]
# name 9 = flECO-AFL: Fluorescence, WET Labs ECO-AFL/FL [mg/m^3]
# name 10 = turbWETntu0: Turbidity, WET Labs ECO [NTU]
# name 11 = tv290C: Temperature [ITS-90, deg C]
# name 12 = density00: Density [density, kg/m^3]
# name 13 = prdE: Pressure, Strain Gauge [psi]
# name 14 = prdM: Pressure, Strain Gauge [db]
# name 15 = flag:  0.000e+00
# span 0 =     -0.649,      9.525       
# span 1 =     -0.607,      0.220       
# span 2 = -1199.7976,   294.5671       
# span 3 =     1.0959,    12.6736       
# span 4 =      9.729,    150.993       
# span 5 = 1.2322e-01, 4.9973e+02       
# span 6 =     15.166,     15.814       
# span 7 =      0.845,    236.383       
# span 8 =   0.984280, 164.178932       
# span 9 =    -1.0523,    56.6359       
# span 10 =    -0.4454,   114.8599      
# span 11 =     9.6069,    33.2311      
# span 12 =   994.6366,   999.8621      
# span 13 =     -0.924,     13.547      
# span 14 =     -0.637,      9.341      
# span 15 = 0.0000e+00, 0.0000e+00      
# interval = seconds: 0.25
# start_time = Jul 25 2021 23:31:11 [Instrument's time stamp, header]
# bad_flag = -9.990e-29
# <Sensors count="9" >
#   <sensor Channel="1" >
#     <!-- Count, Temperature -->
#     <TemperatureSensor SensorID="58" >
#       <SerialNumber>7809</SerialNumber>
#       <CalibrationDate>17-Feb-20</CalibrationDate>
#       <A0>1.23182765e-003</A0>
#       <A1>2.76547921e-004</A1>
#       <A2>-9.73816136e-007</A2>
#       <A3>1.72581310e-007</A3>
#       <Slope>1.00000000</Slope>
#       <Offset>0.0000</Offset>
#     </TemperatureSensor>
#   </sensor>
#   <sensor Channel="2" >
#     <!-- Frequency 0, Conductivity -->
#     <ConductivitySensor SensorID="3" >
#       <SerialNumber>7809</SerialNumber>
#       <CalibrationDate>17-Feb-20</CalibrationDate>
#       <UseG_J>1</UseG_J>
#       <!-- Cell const and series R are applicable only for wide range sensors. -->
#       <SeriesR>0.0000</SeriesR>
#       <CellConst>2000.0000</CellConst>
#       <ConductivityType>0</ConductivityType>
#       <Coefficients equation="0" >
#         <A>0.00000000e+000</A>
#         <B>0.00000000e+000</B>
#         <C>0.00000000e+000</C>
#         <D>0.00000000e+000</D>
#         <M>0.0</M>
#         <CPcor>-9.57000000e-008</CPcor>
#       </Coefficients>
#       <Coefficients equation="1" >
#         <G>-1.00490463e+000</G>
#         <H>1.26424869e-001</H>
#         <I>-3.33847890e-005</I>
#         <J>1.82240562e-005</J>
#         <CPcor>-9.57000000e-008</CPcor>
#         <CTcor>3.2500e-006</CTcor>
#         <!-- WBOTC not applicable unless ConductivityType = 1. -->
#         <WBOTC>0.00000000e+000</WBOTC>
#       </Coefficients>
#       <Slope>1.00000000</Slope>
#       <Offset>0.00000</Offset>
#     </ConductivitySensor>
#   </sensor>
#   <sensor Channel="3" >
#     <!-- Count, Pressure, Strain Gauge -->
#     <PressureSensor SensorID="46" >
#       <SerialNumber>7809</SerialNumber>
#       <CalibrationDate>30-Jan-20</CalibrationDate>
#       <PA0>-8.83936748e-003</PA0>
#       <PA1>4.85235293e-004</PA1>
#       <PA2>-3.46384727e-012</PA2>
#       <PTEMPA0>-5.39633232e+001</PTEMPA0>
#       <PTEMPA1>5.39076104e+001</PTEMPA1>
#       <PTEMPA2>-2.23178720e-002</PTEMPA2>
#       <PTCA0>5.25467230e+005</PTCA0>
#       <PTCA1>5.13856356e+000</PTCA1>
#       <PTCA2>-2.72693365e-001</PTCA2>
#       <PTCB0>2.51668750e+001</PTCB0>
#       <PTCB1>3.75000000e-004</PTCB1>
#       <PTCB2>0.00000000e+000</PTCB2>
#       <Offset>0.000000</Offset>
#     </PressureSensor>
#   </sensor>
#   <sensor Channel="4" >
#     <!-- A/D voltage 0, Oxygen, SBE 43 -->
#     <OxygenSensor SensorID="38" >
#       <SerialNumber>0434</SerialNumber>
#       <CalibrationDate>17-Mar-20</CalibrationDate>
#       <Use2007Equation>1</Use2007Equation>
#       <CalibrationCoefficients equation="0" >
#         <!-- Coefficients for Owens-Millard equation. -->
#         <Boc>0.0000</Boc>
#         <Soc>0.0000e+000</Soc>
#         <offset>0.0000</offset>
#         <Pcor>0.00e+000</Pcor>
#         <Tcor>0.0000</Tcor>
#         <Tau>0.0</Tau>
#       </CalibrationCoefficients>
#       <CalibrationCoefficients equation="1" >
#         <!-- Coefficients for Sea-Bird equation - SBE calibration in 2007 and later. -->
#         <Soc>4.3425e-001</Soc>
#         <offset>-0.6091</offset>
#         <A>-4.2837e-003</A>
#         <B> 1.6743e-004</B>
#         <C>-2.2978e-006</C>
#         <D0> 2.5826e+000</D0>
#         <D1> 1.92634e-004</D1>
#         <D2>-4.64803e-002</D2>
#         <E> 3.6000e-002</E>
#         <Tau20> 1.3000</Tau20>
#         <H1>-3.3000e-002</H1>
#         <H2> 5.0000e+003</H2>
#         <H3> 1.4500e+003</H3>
#       </CalibrationCoefficients>
#     </OxygenSensor>
#   </sensor>
#   <sensor Channel="5" >
#     <!-- A/D voltage 1, PAR/Logarithmic, Satlantic -->
#     <PARLog_SatlanticSensor SensorID="76" >
#       <SerialNumber>1122</SerialNumber>
#       <CalibrationDate>08-May-2019</CalibrationDate>
#       <a0>9.7456e-001</a0>
#       <a1>8.1640e-001</a1>
#       <Im>1.3589e+000</Im>
#       <Multiplier>1.0000e+000</Multiplier>
#     </PARLog_SatlanticSensor>
#   </sensor>
#   <sensor Channel="6" >
#     <!-- A/D voltage 2, pH -->
#     <pH_Sensor SensorID="43" >
#       <SerialNumber>0363</SerialNumber>
#       <CalibrationDate>24-Feb-20</CalibrationDate>
#       <Slope>4.6470</Slope>
#       <Offset>2.5043</Offset>
#     </pH_Sensor>
#   </sensor>
#   <sensor Channel="7" >
#     <!-- A/D voltage 3, Oxidation Reduction Potential -->
#     <OxidationReductionPotentialSensor SensorID="41" >
#       <SerialNumber>0363</SerialNumber>
#       <CalibrationDate>24-Feb-20</CalibrationDate>
#       <B>2.499480</B>
#       <M>-0.496195</M>
#       <Offset>0.0</Offset>
#     </OxidationReductionPotentialSensor>
#   </sensor>
#   <sensor Channel="8" >
#     <!-- A/D voltage 4, Fluorometer, WET Labs ECO-AFL/FL -->
#     <FluoroWetlabECO_AFL_FL_Sensor SensorID="20" >
#       <SerialNumber>FLNTURT-2496</SerialNumber>
#       <CalibrationDate>31-Jan-2020</CalibrationDate>
#       <ScaleFactor>5.50000000e+001</ScaleFactor>
#       <!-- Dark output -->
#       <Vblank>0.0700</Vblank>
#     </FluoroWetlabECO_AFL_FL_Sensor>
#   </sensor>
#   <sensor Channel="9" >
#     <!-- A/D voltage 5, Turbidity Meter, WET Labs, ECO-NTU -->
#     <TurbidityMeter SensorID="67" >
#       <SerialNumber>FLNTURT-2496</SerialNumber>
#       <CalibrationDate>31-Jan-20</CalibrationDate>
#       <ScaleFactor>198.000000</ScaleFactor>
#       <!-- Dark output -->
#       <DarkVoltage>0.070000</DarkVoltage>
#     </TurbidityMeter>
#   </sensor>
# </Sensors>
# datcnv_date = Jul 26 2021 15:23:51, 7.26.7.129 [datcnv_vars = 15]
# datcnv_in = C:\R\Reservoirs\Data\DataNotYetUploadedToEDI\Raw_CTD\RawDownloads\072621_fcr_50_0001.hex C:\DATA\SBE19plusV2_7809.xmlcon
# datcnv_skipover = 0
# datcnv_ox_hysteresis_correction = yes
# datcnv_ox_tau_correction = yes
# filter_date = Jul 26 2021 15:24:16, 7.26.7.129
# filter_in = C:\R\Reservoirs\Data\DataNotYetUploadedToEDI\Raw_CTD\RawDownloads\072621_fcr_50_0001.cnv
# filter_low_pass_tc_A = 0.030
# filter_low_pass_tc_B = 0.150
# filter_low_pass_A_vars = sbeox0Mg/L tv290C density00 prdE prdM
# filter_low_pass_B_vars = depFM dz/dtM orp sbeox0PS par/sat/log ph specc c0uS/cm flECO-AFL turbWETntu0
# alignctd_date = Jul 26 2021 15:24:39, 7.26.7.129
# alignctd_in = C:\R\Reservoirs\Data\DataNotYetUploadedToEDI\Raw_CTD\RawDownloads\072621_fcr_50_0001.cnv
# alignctd_adv = dz/dtM 1.000, orp 1.000, sbeox0PS 1.000, ph 1.000, specc 1.000, c0uS/cm 1.000, flECO-AFL 1.000, turbWETntu0 1.000                                                                                                   
# file_type = ascii
*END*
     -0.649 -8.630e-20 -1155.4953     7.4461    104.110 4.9973e+02     15.166      0.845   0.984280    -0.9170    -0.1402    33.2266   994.6380     -0.923     -0.636 0.0000e+00
     -0.649 -7.845e-21 -1163.0761     7.4460    104.095 4.8142e+02     15.172      0.849   0.988790    -0.9213    -0.1402    33.2268   994.6380     -0.923     -0.636 0.0000e+00
     -0.649 -7.125e-22 -1172.5024     7.4475    104.095 4.5431e+02     15.175      0.901   1.048897    -0.9280    -0.1452    33.2285   994.6374     -0.923     -0.636 0.0000e+00
     -0.649 -5.876e-23 -1174.5659     7.4525    104.088 4.2715e+02     15.177      0.980   1.140923    -0.9316    -0.2359    33.2304   994.6368     -0.923     -0.636 0.0000e+00
     -0.649 6.1048e-23 -1175.7219     7.4495    104.093 3.9960e+02     15.178      1.043   1.214637    -0.9161    -0.3097    33.2311   994.6366     -0.922     -0.636 0.0000e+00
     -0.649 7.3584e-22 -1181.2309     7.4473    104.103 3.7872e+02     15.177      1.068   1.243354    -0.9039    -0.3166    33.2301   994.6369     -0.923     -0.636 0.0000e+00
     -0.649 8.1001e-21 -1186.1099     7.4501    104.108 3.6561e+02     15.175      1.060   1.234759    -0.9172    -0.3195    33.2291   994.6372     -0.924     -0.637 0.0000e+00
     -0.649 8.9101e-20 -1187.3058     7.4471    104.133 3.5770e+02     15.175      1.062   1.237402    -0.9338    -0.3449    33.2292   994.6372     -0.923     -0.636 0.0000e+00
     -0.649 9.8012e-19 -1186.3127     7.4481    104.135 3.5965e+02     15.176      1.095   1.275317    -0.9331    -0.3838    33.2295   994.6371     -0.922     -0.636 0.0000e+00
     -0.649 1.0781e-17 -1186.4915     7.4506    104.105 3.6498e+02     15.177      1.127   1.313107    -0.9278    -0.4118    33.2296   994.6370     -0.923     -0.636 0.0000e+00
     -0.648 1.1859e-16 -1188.6075     7.4475    104.131 3.7368e+02     15.179      1.128   1.314240    -0.9265    -0.4079    33.2292   994.6372     -0.922     -0.636 0.0000e+00
     -0.648 1.3045e-15 -1190.5601     7.4523    104.181 3.8643e+02     15.181      1.107   1.289015    -0.9182    -0.4049    33.2286   994.6374     -0.922     -0.636 0.0000e+00
     -0.648 1.4350e-14 -1191.3438     7.4542    104.178 3.9237e+02     15.181      1.083   1.261497    -0.9039    -0.3766    33.2281   994.6375     -0.923     -0.636 0.0000e+00
     -0.648 1.5785e-13 -1191.1128     7.4465    104.159 3.9277e+02     15.181      1.060   1.234912    -0.8963    -0.3059    33.2274   994.6378     -0.922     -0.636 0.0000e+00
     -0.649 2.8939e-13 -1190.6930     7.4503    104.146 3.9453e+02     15.181      1.048   1.220952    -0.9028    -0.3046    33.2268   994.6380     -0.923     -0.636 0.0000e+00
     -0.649 1.5784e-13 -1190.6558     7.4587    104.154 3.9947e+02     15.181      1.047   1.219399    -0.9151    -0.3269    33.2263   994.6381     -0.923     -0.636 0.0000e+00
     -0.649 1.4350e-14 -1190.8349     7.4542    104.186 4.0643e+02     15.181      1.044   1.216143    -0.9122    -0.3009    33.2261   994.6382     -0.922     -0.636 0.0000e+00
     -0.649 1.3052e-15 -1191.1384     7.4537    104.192 4.0824e+02     15.181      1.015   1.181582    -0.8957    -0.2990    33.2263   994.6381     -0.923     -0.636 0.0000e+00
     -0.648 1.2653e-16 -1191.7438     7.4528    104.177 4.0530e+02     15.181      0.961   1.118250    -0.8972    -0.3392    33.2263   994.6381     -0.922     -0.636 0.0000e+00
     -0.648 9.8116e-17 -1192.5613     7.4511    104.151 4.0435e+02     15.181      0.931   1.083868    -0.9107    -0.3745    33.2261   994.6382     -0.922     -0.636 0.0000e+00
     -0.649 9.6166e-16 -1193.0222     7.4579    104.139 3.9468e+02     15.181      0.930   1.082596    -0.9067    -0.3480    33.2258   994.6383     -0.923     -0.636 0.0000e+00
     -0.649 1.0568e-14 -1192.9281     7.4559    104.172 3.6409e+02     15.181      0.947   1.102872    -0.9065    -0.3278    33.2255   994.6384     -0.923     -0.636 0.0000e+00
     -0.649 1.1624e-13 -1193.8331     7.4556    104.206 3.1450e+02     15.181      0.978   1.138987    -0.9175    -0.3706    33.2249   994.6386     -0.922     -0.636 0.0000e+00
     -0.649 1.2787e-12 -1195.8756     7.4535    104.210 2.4949e+02     15.181      0.978   1.139183    -0.9157    -0.3851    33.2247   994.6387     -0.923     -0.636 0.0000e+00
     -0.649 1.4065e-11 -1196.8027     7.4500    104.193 1.8887e+02     15.180      0.949   1.105240    -0.9134    -0.3652    33.2250   994.6385     -0.923     -0.636 0.0000e+00
     -0.648 1.5472e-10 -1196.6971     7.4556    104.185 1.5473e+02     15.179      0.952   1.108656    -0.9181    -0.3704    33.2243   994.6388     -0.922     -0.636 0.0000e+00
     -0.648 1.7019e-09 -1196.5774     7.4580    104.195 1.3998e+02     15.179      0.959   1.117144    -0.9248    -0.4139    33.2240   994.6389     -0.922     -0.635 0.0000e+00
