* Sea-Bird SBE19plus  Data File:
* FileName = C:\DATA\073018_fcr50_0001.hex
* Software version 2.6.3.104 SB_Terminal.dll
* Temperature SN = 7809
* Conductivity SN = 7809
* System UpLoad Time = Jul 30 2018 16:25:45
* <ApplicationData>
* <Seaterm232>
* <SoftwareVersion>2.6.3.104</SoftwareVersion>
* <BuildDate>30-Jun-2017</BuildDate>
* </Seaterm232>
* </ApplicationData>
* cast   1 26 Jul 2018 15:11:58 samples 1 to 893, avg = 1, stop = mag switch
# nquan = 15
# nvalues = 746                         
# units = specified
# name 0 = depFM: Depth [fresh water, m]
# name 1 = dz/dtM: Descent Rate [m/s]
# name 2 = sbeox0Mg/L: Oxygen, SBE 43 [mg/l]
# name 3 = sbeox0PS: Oxygen, SBE 43 [% saturation]
# name 4 = specc: Specific Conductance [uS/cm]
# name 5 = c0uS/cm: Conductivity [uS/cm]
# name 6 = flECO-AFL: Fluorescence, WET Labs ECO-AFL/FL [mg/m^3]
# name 7 = ph: pH
# name 8 = orp: Oxidation Reduction Potential [mV]
# name 9 = par/sat/log: PAR/Logarithmic, Satlantic
# name 10 = turbWETntu0: Turbidity, WET Labs ECO [NTU]
# name 11 = prdM: Pressure, Strain Gauge [db]
# name 12 = prdE: Pressure, Strain Gauge [psi]
# name 13 = tv290C: Temperature [ITS-90, deg C]
# name 14 = flag:  0.000e+00
# span 0 =     -0.317,      7.100       
# span 1 =     -0.124,      0.126       
# span 2 =    -1.4855,     9.4341       
# span 3 =    -15.712,    114.327       
# span 4 =     28.605,     61.258       
# span 5 =  25.512695,  41.577794       
# span 6 =     1.1670,     9.0614       
# span 7 =      6.685,      8.786       
# span 8 =     4.8403,   199.7000       
# span 9 = 1.2531e-01, 2.4784e+03       
# span 10 =     1.1991,     8.9794      
# span 11 =     -0.315,      6.978      
# span 12 =     -0.456,     10.120      
# span 13 =     8.9090,    25.3732      
# span 14 = 0.0000e+00, 0.0000e+00      
# interval = seconds: 0.25
# start_time = Jul 26 2018 15:11:58 [Instrument's time stamp, header]
# bad_flag = -9.990e-29
# <Sensors count="9" >
#   <sensor Channel="1" >
#     <!-- Count, Temperature -->
#     <TemperatureSensor SensorID="58" >
#       <SerialNumber>7809</SerialNumber>
#       <CalibrationDate>09-Mar-18</CalibrationDate>
#       <A0>1.21093245e-003</A0>
#       <A1>2.84356597e-004</A1>
#       <A2>-1.94507398e-006</A2>
#       <A3>2.12806664e-007</A3>
#       <Slope>1.00000000</Slope>
#       <Offset>0.0000</Offset>
#     </TemperatureSensor>
#   </sensor>
#   <sensor Channel="2" >
#     <!-- Frequency 0, Conductivity -->
#     <ConductivitySensor SensorID="3" >
#       <SerialNumber>7809</SerialNumber>
#       <CalibrationDate>09-Mar-18</CalibrationDate>
#       <UseG_J>1</UseG_J>
#       <!-- Cell const and series R are applicable only for wide range sensors. -->
#       <SeriesR>0.0000</SeriesR>
#       <CellConst>2000.0000</CellConst>
#       <ConductivityType>0</ConductivityType>
#       <Coefficients equation="0" >
#         <A>0.00000000e+000</A>
#         <B>0.00000000e+000</B>
#         <C>0.00000000e+000</C>
#         <D>0.00000000e+000</D>
#         <M>0.0</M>
#         <CPcor>-9.57000000e-008</CPcor>
#       </Coefficients>
#       <Coefficients equation="1" >
#         <G>-1.00672082e+000</G>
#         <H>1.26906489e-001</H>
#         <I>-1.40584351e-004</I>
#         <J>2.47837121e-005</J>
#         <CPcor>-9.57000000e-008</CPcor>
#         <CTcor>3.2500e-006</CTcor>
#         <!-- WBOTC not applicable unless ConductivityType = 1. -->
#         <WBOTC>0.00000000e+000</WBOTC>
#       </Coefficients>
#       <Slope>1.00000000</Slope>
#       <Offset>0.00000</Offset>
#     </ConductivitySensor>
#   </sensor>
#   <sensor Channel="3" >
#     <!-- Count, Pressure, Strain Gauge -->
#     <PressureSensor SensorID="46" >
#       <SerialNumber>7809</SerialNumber>
#       <CalibrationDate>07-Mar-18</CalibrationDate>
#       <PA0>-4.08176359e-002</PA0>
#       <PA1>4.85188419e-004</PA1>
#       <PA2>-3.51168169e-012</PA2>
#       <PTEMPA0>-5.37806900e+001</PTEMPA0>
#       <PTEMPA1>5.36620721e+001</PTEMPA1>
#       <PTEMPA2>4.87214332e-002</PTEMPA2>
#       <PTCA0>5.25213435e+005</PTCA0>
#       <PTCA1>1.79532409e+000</PTCA1>
#       <PTCA2>-2.84353509e-001</PTCA2>
#       <PTCB0>2.51668750e+001</PTCB0>
#       <PTCB1>3.75000000e-004</PTCB1>
#       <PTCB2>0.00000000e+000</PTCB2>
#       <Offset>0.000000</Offset>
#     </PressureSensor>
#   </sensor>
#   <sensor Channel="4" >
#     <!-- A/D voltage 0, pH -->
#     <pH_Sensor SensorID="43" >
#       <SerialNumber>0363</SerialNumber>
#       <CalibrationDate>16-Mar-18</CalibrationDate>
#       <Slope>4.6194</Slope>
#       <Offset>2.5947</Offset>
#     </pH_Sensor>
#   </sensor>
#   <sensor Channel="5" >
#     <!-- A/D voltage 1, Oxidation Reduction Potential -->
#     <OxidationReductionPotentialSensor SensorID="41" >
#       <SerialNumber>0363</SerialNumber>
#       <CalibrationDate>16-Mar-18</CalibrationDate>
#       <B>2.499480</B>
#       <M>-0.496195</M>
#       <Offset>0.0</Offset>
#     </OxidationReductionPotentialSensor>
#   </sensor>
#   <sensor Channel="6" >
#     <!-- A/D voltage 2, Oxygen, SBE 43 -->
#     <OxygenSensor SensorID="38" >
#       <SerialNumber>0434</SerialNumber>
#       <CalibrationDate>13-Mar-18</CalibrationDate>
#       <Use2007Equation>1</Use2007Equation>
#       <CalibrationCoefficients equation="0" >
#         <!-- Coefficients for Owens-Millard equation. -->
#         <Boc>0.0000</Boc>
#         <Soc>0.0000e+000</Soc>
#         <offset>0.0000</offset>
#         <Pcor>0.00e+000</Pcor>
#         <Tcor>0.0000</Tcor>
#         <Tau>0.0</Tau>
#       </CalibrationCoefficients>
#       <CalibrationCoefficients equation="1" >
#         <!-- Coefficients for Sea-Bird equation - SBE calibration in 2007 and later. -->
#         <Soc>4.5718e-001</Soc>
#         <offset>-0.6113</offset>
#         <A>-4.0649e-003</A>
#         <B> 2.0945e-004</B>
#         <C>-3.3182e-006</C>
#         <D0> 2.5826e+000</D0>
#         <D1> 1.92634e-004</D1>
#         <D2>-4.64803e-002</D2>
#         <E> 3.6000e-002</E>
#         <Tau20> 1.2200</Tau20>
#         <H1>-3.3000e-002</H1>
#         <H2> 5.0000e+003</H2>
#         <H3> 1.4500e+003</H3>
#       </CalibrationCoefficients>
#     </OxygenSensor>
#   </sensor>
#   <sensor Channel="7" >
#     <!-- A/D voltage 3, PAR/Logarithmic, Satlantic -->
#     <PARLog_SatlanticSensor SensorID="76" >
#       <SerialNumber>1122</SerialNumber>
#       <CalibrationDate>22-Jun-2017</CalibrationDate>
#       <a0>9.6090e-001</a0>
#       <a1>8.0780e-001</a1>
#       <Im>1.3589e+000</Im>
#       <Multiplier>1.0000e+000</Multiplier>
#     </PARLog_SatlanticSensor>
#   </sensor>
#   <sensor Channel="8" >
#     <!-- A/D voltage 4, Fluorometer, WET Labs ECO-AFL/FL -->
#     <FluoroWetlabECO_AFL_FL_Sensor SensorID="20" >
#       <SerialNumber>FLNTURT-2496</SerialNumber>
#       <CalibrationDate>25-Jan-2017</CalibrationDate>
#       <ScaleFactor>5.30000000e+001</ScaleFactor>
#       <!-- Dark output -->
#       <Vblank>0.0560</Vblank>
#     </FluoroWetlabECO_AFL_FL_Sensor>
#   </sensor>
#   <sensor Channel="9" >
#     <!-- A/D voltage 5, Turbidity Meter, WET Labs, ECO-NTU -->
#     <TurbidityMeter SensorID="67" >
#       <SerialNumber>FLNTURT-2496</SerialNumber>
#       <CalibrationDate>25-Jan-2017</CalibrationDate>
#       <ScaleFactor>176.000000</ScaleFactor>
#       <!-- Dark output -->
#       <DarkVoltage>0.072000</DarkVoltage>
#     </TurbidityMeter>
#   </sensor>
# </Sensors>
# datcnv_date = Jul 30 2018 17:58:12, 7.26.7.114 [datcnv_vars = 14]
# datcnv_in = C:\DATA\073018_bvr50.hex C:\DATA\SBE19plusV2_7809.xmlcon
# datcnv_skipover = 0
# datcnv_ox_hysteresis_correction = yes
# datcnv_ox_tau_correction = yes
# filter_date = Jul 30 2018 17:58:36, 7.26.7.114
# filter_in = C:\DATA\073018_bvr50.cnv
# filter_low_pass_tc_A = 0.030
# filter_low_pass_tc_B = 0.150
# filter_low_pass_A_vars = prdM prdE tv290C
# filter_low_pass_B_vars = depFM dz/dtM sbeox0Mg/L sbeox0PS specc c0uS/cm flECO-AFL ph orp par/sat/log turbWETntu0
# alignctd_date = Jul 30 2018 17:59:03, 7.26.7.114
# alignctd_in = C:\DATA\073018_bvr50.cnv
# alignctd_adv = dz/dtM 1.000, sbeox0Mg/L 1.000, sbeox0PS 1.000, specc 1.000, c0uS/cm 1.000, flECO-AFL 1.000, ph 1.000, orp 1.000, turbWETntu0 1.000                                                                                 
# file_type = ascii
*END*
     -0.180      0.001     6.4050     77.967     34.524  34.742595     3.0634      8.745   133.2471 2.4593e+03     8.4041     -0.176     -0.256    25.2966 0.0000e+00
     -0.180     -0.000     6.3564     77.375     34.800  35.020724     3.0604      8.748   133.4291 2.4491e+03     8.3724     -0.176     -0.255    25.3032 0.0000e+00
     -0.179     -0.002     6.3007     76.696     35.043  35.265132     3.0517      8.749   133.5585 2.4303e+03     8.3355     -0.176     -0.256    25.3081 0.0000e+00
     -0.179     -0.004     6.2426     75.987     35.000  35.220436     3.0309      8.749   133.7795 2.4129e+03     8.2934     -0.175     -0.253    25.3097 0.0000e+00
     -0.180     -0.004     6.1853     75.289     34.706  34.924929     3.0110      8.748   134.1229 2.4048e+03     8.2303     -0.176     -0.255    25.3112 0.0000e+00
     -0.182     -0.003     6.1318     74.640     34.586  34.804643     2.9958      8.747   134.4404 2.4068e+03     8.1520     -0.179     -0.259    25.3109 0.0000e+00
     -0.186     -0.002     6.0855     74.078     34.689  34.909442     2.9749      8.747   134.6926 2.4187e+03     8.1409     -0.182     -0.264    25.3102 0.0000e+00
     -0.186      0.000     6.0458     73.597     34.890  35.112232     2.9708      8.749   134.9356 2.4311e+03     8.1567     -0.184     -0.267    25.3094 0.0000e+00
     -0.184 3.6004e-10     6.0103     73.164     35.064  35.287440     2.9913      8.751   135.1418 2.4364e+03     8.0987     -0.181     -0.262    25.3084 0.0000e+00
     -0.182 3.9605e-09     5.9798     72.794     35.025  35.249302     3.0119      8.752   135.2921 2.4374e+03     8.0196     -0.178     -0.258    25.3098 0.0000e+00
     -0.181 4.3565e-08     5.9560     72.505     34.809  35.032237     3.0171      8.754   135.4631 2.4324e+03     7.9939     -0.177     -0.257    25.3117 0.0000e+00
     -0.181 4.7921e-07     5.9353     72.256     34.662  34.886123     3.0181      8.754   135.7471 2.4254e+03     8.0624     -0.176     -0.255    25.3123 0.0000e+00
     -0.184      0.000     5.9143     72.006     34.780  35.007115     3.0329      8.754   136.0586 2.4214e+03     8.1767     -0.180     -0.261    25.3129 0.0000e+00
     -0.187      0.000     5.8908     71.723     34.869  35.097713     3.0488      8.754   136.3032 2.4159e+03     8.2159     -0.186     -0.270    25.3126 0.0000e+00
     -0.186      0.001     5.8651     71.411     34.737  34.965222     3.0542      8.753   136.5539 2.4096e+03     8.2009     -0.184     -0.267    25.3125 0.0000e+00
     -0.182      0.002     5.8397     71.102     34.764  34.993173     3.0430      8.750   136.8528 2.4038e+03     8.2082     -0.178     -0.257    25.3159 0.0000e+00
     -0.181      0.002     5.8144     70.796     34.950  35.181588     3.0142      8.745   137.2501 2.3999e+03     8.2137     -0.176     -0.255    25.3204 0.0000e+00
     -0.181     -0.001     5.7928     70.535     35.041  35.274226     2.9998      8.740   137.5719 2.3989e+03     8.2359     -0.180     -0.261    25.3221 0.0000e+00
     -0.180     -0.006     5.7813     70.397     35.116  35.351011     2.9983      8.736   137.6464 2.3989e+03     8.2629     -0.176     -0.256    25.3224 0.0000e+00
     -0.180     -0.011     5.7795     70.379     35.048  35.284218     3.0054      8.735   137.6344 2.4076e+03     8.2353     -0.173     -0.250    25.3240 0.0000e+00
     -0.186     -0.012     5.7857     70.459     34.739  34.974802     3.0294      8.737   137.7701 2.4195e+03     8.2070     -0.183     -0.265    25.3246 0.0000e+00
     -0.193     -0.008     5.7982     70.613     34.550  34.785876     3.0498      8.739   138.1690 2.4261e+03     8.2270     -0.190     -0.276    25.3258 0.0000e+00
     -0.200     -0.005     5.8109     70.769     34.731  34.969042     3.0600      8.739   138.4136 2.4341e+03     8.2630     -0.196     -0.285    25.3290 0.0000e+00
     -0.202     -0.003     5.8195     70.873     35.107  35.347392     3.0607      8.740   138.4045 2.4358e+03     8.2457     -0.202     -0.293    25.3308 0.0000e+00
     -0.197     -0.003     5.8249     70.936     35.372  35.612787     3.0856      8.745   138.5752 2.4273e+03     8.1392     -0.194     -0.282    25.3343 0.0000e+00
     -0.187     -0.004     5.8303     71.000     35.334  35.573555     3.1402      8.750   138.8423 2.4167e+03     8.0135     -0.180     -0.261    25.3369 0.0000e+00
     -0.186     -0.004     5.8387     71.104     35.016  35.254156     3.1696      8.752   139.1388 2.4079e+03     7.9767     -0.178     -0.258    25.3381 0.0000e+00
     -0.195     -0.004     5.8493     71.236     34.753  34.990517     3.1832      8.750   139.5800 2.4032e+03     7.9994     -0.191     -0.277    25.3375 0.0000e+00
     -0.205     -0.004     5.8585     71.349     34.751  34.990257     3.1957      8.743   139.9614 2.4025e+03     8.0439     -0.204     -0.295    25.3341 0.0000e+00
     -0.209     -0.004     5.8636     71.413     34.820  35.060454     3.1917      8.737   140.0495 2.4116e+03     8.1484     -0.208     -0.301    25.3321 0.0000e+00
     -0.204     -0.002     5.8637     71.415     34.836  35.077037     3.1900      8.735   139.9575 2.4220e+03     8.2259     -0.200     -0.291    25.3333 0.0000e+00
     -0.197      0.002     5.8578     71.345     34.823  35.063722     3.1939      8.738   140.0530 2.4247e+03     8.2181     -0.190     -0.276    25.3367 0.0000e+00
     -0.194      0.004     5.8456     71.197     34.785  35.026504     3.1279      8.744   140.3439 2.4300e+03     8.1770     -0.188     -0.273    25.3381 0.0000e+00
     -0.196      0.003     5.8296     71.004     34.766  35.008151     2.9984      8.749   140.6357 2.4362e+03     8.1554     -0.192     -0.279    25.3389 0.0000e+00
     -0.199      0.000     5.8119     70.790     34.852  35.095894     2.9341      8.751   141.0000 2.4372e+03     8.1699     -0.196     -0.284    25.3398 0.0000e+00
     -0.200     -0.001     5.7942     70.576     35.016  35.261645     2.9385      8.750   141.3073 2.4364e+03     8.2001     -0.197     -0.286    25.3402 0.0000e+00
     -0.200     -0.000     5.7780     70.380     35.113  35.360706     2.9865      8.749   141.4253 2.4353e+03     8.2158     -0.197     -0.285    25.3412 0.0000e+00
     -0.198      0.001     5.7628     70.195     35.093  35.340831     3.0731      8.749   141.4806 2.4328e+03     8.2072     -0.195     -0.282    25.3423 0.0000e+00
     -0.197      0.002     5.7474     70.010     35.027  35.275425     3.1226      8.750   141.5452 2.4313e+03     8.1873     -0.193     -0.279    25.3440 0.0000e+00
     -0.197      0.002     5.7321     69.826     34.956  35.205091     3.1242      8.751   141.7771 2.4335e+03     8.1573     -0.192     -0.278    25.3455 0.0000e+00
     -0.198      0.001     5.7181     69.658     34.938  35.189147     3.1212      8.749   142.1334 2.4380e+03     8.1503     -0.193     -0.281    25.3464 0.0000e+00
     -0.198     -0.001     5.7054     69.505     35.147  35.400256     3.1228      8.748   142.4979 2.4439e+03     8.1638     -0.195     -0.283    25.3467 0.0000e+00
     -0.197     -0.004     5.6929     69.354     35.470  35.724926     3.1252      8.750   142.8278 2.4503e+03     8.1678     -0.194     -0.281    25.3476 0.0000e+00
     -0.197     -0.008     5.6815     69.213     35.494  35.748074     3.1310      8.755   142.8524 2.4532e+03     8.1983     -0.192     -0.279    25.3497 0.0000e+00
     -0.197     -0.009     5.6723     69.101     35.174  35.426051     3.1289      8.757   142.7097 2.4536e+03     8.2887     -0.192     -0.279    25.3521 0.0000e+00
     -0.201     -0.007     5.6648     69.013     34.945  35.198000     3.1097      8.753   142.8233 2.4536e+03     8.3755     -0.196     -0.283    25.3542 0.0000e+00
     -0.210     -0.003     5.6617     68.978     35.023  35.277485     3.0829      8.747   143.0214 2.4506e+03     8.3939     -0.206     -0.298    25.3546 0.0000e+00
     -0.215     -0.001     5.6639     69.003     35.179  35.434291     3.0615      8.745   143.2117 2.4490e+03     8.3893     -0.215     -0.311    25.3524 0.0000e+00
     -0.210      0.001     5.6660     69.028     35.251  35.505912     3.0623      8.746   143.4901 2.4485e+03     8.3805     -0.209     -0.303    25.3516 0.0000e+00
     -0.201      0.003     5.6651     69.017     35.253  35.508242     3.0655      8.746   143.6344 2.4470e+03     8.3186     -0.193     -0.281    25.3552 0.0000e+00
     -0.196      0.003     5.6600     68.955     35.208  35.462459     3.0544      8.748   143.7509 2.4475e+03     8.2508     -0.189     -0.274    25.3583 0.0000e+00
     -0.199      0.001     5.6486     68.817     35.079  35.333489     3.0564      8.753   143.9530 2.4425e+03     8.2320     -0.196     -0.284    25.3575 0.0000e+00
     -0.203     -0.002     5.6314     68.608     34.902  35.155773     3.0699      8.757   144.0994 2.4381e+03     8.2139     -0.201     -0.291    25.3548 0.0000e+00
     -0.205     -0.003     5.6125     68.378     34.839  35.092282     3.1079      8.759   144.2298 2.4416e+03     8.2444     -0.201     -0.292    25.3543 0.0000e+00
     -0.208     -0.002     5.5975     68.195     35.010  35.264544     3.1671      8.759   144.3258 2.4481e+03     8.3572     -0.203     -0.295    25.3556 0.0000e+00
     -0.209      0.001     5.5880     68.079     35.267  35.523511     3.1978      8.756   144.3998 2.4600e+03     8.4187     -0.206     -0.299    25.3563 0.0000e+00
     -0.205      0.003     5.5806     67.989     35.426  35.682602     3.2030      8.755   144.4353 2.4698e+03     8.4082     -0.203     -0.293    25.3574 0.0000e+00
     -0.200      0.004     5.5727     67.895     35.532  35.790638     3.1569      8.756   144.4112 2.4732e+03     8.3522     -0.194     -0.282    25.3577 0.0000e+00
     -0.199      0.004     5.5649     67.800     35.554  35.813421     3.0637      8.758   144.5392 2.4784e+03     8.2301     -0.194     -0.282    25.3582 0.0000e+00
     -0.201      0.003     5.5561     67.694     35.508  35.767499     3.0221      8.760   144.7775 2.4686e+03     8.1526     -0.199     -0.288    25.3578 0.0000e+00
     -0.201      0.001     5.5429     67.534     35.484  35.743578     3.0306      8.761   144.8831 2.4459e+03     8.1774     -0.197     -0.286    25.3567 0.0000e+00
     -0.200     -0.001     5.5230     67.291     35.455  35.714768     3.0194      8.762   144.8698 2.4324e+03     8.2246     -0.195     -0.283    25.3579 0.0000e+00
     -0.201     -0.002     5.4985     66.993     35.413  35.673238     2.9960      8.762   144.9613 2.4244e+03     8.2354     -0.197     -0.286    25.3586 0.0000e+00
     -0.201     -0.001     5.4729     66.682     35.426  35.686104     2.9963      8.759   145.3014 2.4240e+03     8.2168     -0.198     -0.285    25.3589 0.0000e+00
     -0.202     -0.001     5.4482     66.382     35.546  35.806810     3.0143      8.754   145.7114 2.4300e+03     8.2131     -0.197     -0.286    25.3599 0.0000e+00
     -0.204     -0.001     5.4252     66.103     35.726  35.989289     3.0213      8.752   145.8749 2.4397e+03     8.2211     -0.200     -0.292    25.3602 0.0000e+00
     -0.204      0.000     5.4037     65.841     35.912  36.177332     3.0067      8.752   145.9014 2.4559e+03     8.2224     -0.201     -0.291    25.3608 0.0000e+00
     -0.203 6.3129e-08     5.3818     65.575     36.098  36.365299     2.9848      8.753   146.0324 2.4654e+03     8.2290     -0.198     -0.287    25.3615 0.0000e+00
