* Sea-Bird SBE19plus  Data File:
* FileName = C:\DATA\072919_fcr50_0001.hex
* Software version 2.8.0.119 SB_Terminal.dll
* Temperature SN = 7809
* Conductivity SN = 7809
* System UpLoad Time = Jul 29 2019 09:51:23
* <ApplicationData>
* <Seaterm232>
* <SoftwareVersion>2.8.0.119</SoftwareVersion>
* <BuildDate>07-Nov-2018</BuildDate>
* </Seaterm232>
* </ApplicationData>
* cast   1 29 Jul 2019 09:43:15 samples 1 to 745, avg = 1, stop = mag switch
# nquan = 16
# nvalues = 668                         
# units = specified
# name 0 = depFM: Depth [fresh water, m]
# name 1 = dz/dtM: Descent Rate [m/s]
# name 2 = sbeox0Mg/L: Oxygen, SBE 43 [mg/l]
# name 3 = sbeox0PS: Oxygen, SBE 43 [% saturation]
# name 4 = specc: Specific Conductance [uS/cm]
# name 5 = c0uS/cm: Conductivity [uS/cm]
# name 6 = flECO-AFL: Fluorescence, WET Labs ECO-AFL/FL [mg/m^3]
# name 7 = ph: pH
# name 8 = orp: Oxidation Reduction Potential [mV]
# name 9 = par/sat/log: PAR/Logarithmic, Satlantic
# name 10 = turbWETntu0: Turbidity, WET Labs ECO [NTU]
# name 11 = prdM: Pressure, Strain Gauge [db]
# name 12 = prdE: Pressure, Strain Gauge [psi]
# name 13 = tv290C: Temperature [ITS-90, deg C]
# name 14 = density00: Density [density, kg/m^3]
# name 15 = flag:  0.000e+00
# span 0 =     -0.556,      9.635       
# span 1 =     -0.118,      4.239       
# span 2 =     0.0156,    10.4107       
# span 3 =      0.141,    122.220       
# span 4 =      1.827,    231.511       
# span 5 =   1.858579, 166.617752       
# span 6 =    -1.9458,    37.2942       
# span 7 =      6.779,     11.562       
# span 8 = -1003.8975,   489.9254       
# span 9 = 1.2354e-01, 1.4550e+03       
# span 10 =    -0.5401,    17.9334      
# span 11 =     -0.546,      9.450      
# span 12 =     -0.792,     13.705      
# span 13 =    10.8429,    26.2517      
# span 14 =   996.7363,   999.7439      
# span 15 = 0.0000e+00, 0.0000e+00      
# interval = seconds: 0.25
# start_time = Jul 29 2019 09:43:15 [Instrument's time stamp, header]
# bad_flag = -9.990e-29
# <Sensors count="9" >
#   <sensor Channel="1" >
#     <!-- Count, Temperature -->
#     <TemperatureSensor SensorID="58" >
#       <SerialNumber>7809</SerialNumber>
#       <CalibrationDate>24-Mar-19</CalibrationDate>
#       <A0>1.21792325e-003</A0>
#       <A1>2.81669265e-004</A1>
#       <A2>-1.60333336e-006</A2>
#       <A3>1.98414625e-007</A3>
#       <Slope>1.00000000</Slope>
#       <Offset>0.0000</Offset>
#     </TemperatureSensor>
#   </sensor>
#   <sensor Channel="2" >
#     <!-- Frequency 0, Conductivity -->
#     <ConductivitySensor SensorID="3" >
#       <SerialNumber>7809</SerialNumber>
#       <CalibrationDate>24-Mar-19</CalibrationDate>
#       <UseG_J>1</UseG_J>
#       <!-- Cell const and series R are applicable only for wide range sensors. -->
#       <SeriesR>0.0000</SeriesR>
#       <CellConst>2000.0000</CellConst>
#       <ConductivityType>0</ConductivityType>
#       <Coefficients equation="0" >
#         <A>0.00000000e+000</A>
#         <B>0.00000000e+000</B>
#         <C>0.00000000e+000</C>
#         <D>0.00000000e+000</D>
#         <M>0.0</M>
#         <CPcor>-9.57000000e-008</CPcor>
#       </Coefficients>
#       <Coefficients equation="1" >
#         <G>-1.00589325e+000</G>
#         <H>1.26816302e-001</H>
#         <I>-1.51560448e-004</I>
#         <J>2.67137274e-005</J>
#         <CPcor>-9.57000000e-008</CPcor>
#         <CTcor>3.2500e-006</CTcor>
#         <!-- WBOTC not applicable unless ConductivityType = 1. -->
#         <WBOTC>0.00000000e+000</WBOTC>
#       </Coefficients>
#       <Slope>1.00000000</Slope>
#       <Offset>0.00000</Offset>
#     </ConductivitySensor>
#   </sensor>
#   <sensor Channel="3" >
#     <!-- Count, Pressure, Strain Gauge -->
#     <PressureSensor SensorID="46" >
#       <SerialNumber>7809</SerialNumber>
#       <CalibrationDate>11-Mar-19</CalibrationDate>
#       <PA0>4.56561833e-002</PA0>
#       <PA1>4.85095118e-004</PA1>
#       <PA2>-2.88327090e-012</PA2>
#       <PTEMPA0>-5.48784562e+001</PTEMPA0>
#       <PTEMPA1>5.53756816e+001</PTEMPA1>
#       <PTEMPA2>-5.86727098e-001</PTEMPA2>
#       <PTCA0>5.25246745e+005</PTCA0>
#       <PTCA1>1.22304214e+001</PTCA1>
#       <PTCA2>-3.56745036e-001</PTCA2>
#       <PTCB0>2.51668750e+001</PTCB0>
#       <PTCB1>3.75000000e-004</PTCB1>
#       <PTCB2>0.00000000e+000</PTCB2>
#       <Offset>0.000000</Offset>
#     </PressureSensor>
#   </sensor>
#   <sensor Channel="4" >
#     <!-- A/D voltage 0, Oxygen, SBE 43 -->
#     <OxygenSensor SensorID="38" >
#       <SerialNumber>0434</SerialNumber>
#       <CalibrationDate>13-Apr-19</CalibrationDate>
#       <Use2007Equation>1</Use2007Equation>
#       <CalibrationCoefficients equation="0" >
#         <!-- Coefficients for Owens-Millard equation. -->
#         <Boc>0.0000</Boc>
#         <Soc>0.0000e+000</Soc>
#         <offset>0.0000</offset>
#         <Pcor>0.00e+000</Pcor>
#         <Tcor>0.0000</Tcor>
#         <Tau>0.0</Tau>
#       </CalibrationCoefficients>
#       <CalibrationCoefficients equation="1" >
#         <!-- Coefficients for Sea-Bird equation - SBE calibration in 2007 and later. -->
#         <Soc>4.2007e-001</Soc>
#         <offset>-0.6109</offset>
#         <A>-4.3656e-003</A>
#         <B> 1.7017e-004</B>
#         <C>-2.5341e-006</C>
#         <D0> 2.5826e+000</D0>
#         <D1> 1.92634e-004</D1>
#         <D2>-4.64803e-002</D2>
#         <E> 3.6000e-002</E>
#         <Tau20> 1.1800</Tau20>
#         <H1>-3.3000e-002</H1>
#         <H2> 5.0000e+003</H2>
#         <H3> 1.4500e+003</H3>
#       </CalibrationCoefficients>
#     </OxygenSensor>
#   </sensor>
#   <sensor Channel="5" >
#     <!-- A/D voltage 1, PAR/Logarithmic, Satlantic -->
#     <PARLog_SatlanticSensor SensorID="76" >
#       <SerialNumber>1122</SerialNumber>
#       <CalibrationDate>08-May-2019</CalibrationDate>
#       <a0>9.7456e-001</a0>
#       <a1>8.1640e-001</a1>
#       <Im>1.3589e+000</Im>
#       <Multiplier>1.0000e+000</Multiplier>
#     </PARLog_SatlanticSensor>
#   </sensor>
#   <sensor Channel="6" >
#     <!-- A/D voltage 2, pH -->
#     <pH_Sensor SensorID="43" >
#       <SerialNumber>0363</SerialNumber>
#       <CalibrationDate>15-Apr-19</CalibrationDate>
#       <Slope>4.5952</Slope>
#       <Offset>2.5370</Offset>
#     </pH_Sensor>
#   </sensor>
#   <sensor Channel="7" >
#     <!-- A/D voltage 3, Oxidation Reduction Potential -->
#     <OxidationReductionPotentialSensor SensorID="41" >
#       <SerialNumber>0363</SerialNumber>
#       <CalibrationDate>15-Apr-19</CalibrationDate>
#       <B>2.499480</B>
#       <M>-0.496195</M>
#       <Offset>0.0</Offset>
#     </OxidationReductionPotentialSensor>
#   </sensor>
#   <sensor Channel="8" >
#     <!-- A/D voltage 4, Fluorometer, WET Labs ECO-AFL/FL -->
#     <FluoroWetlabECO_AFL_FL_Sensor SensorID="20" >
#       <SerialNumber>FLNTURT-2496</SerialNumber>
#       <CalibrationDate>08-May-2019</CalibrationDate>
#       <ScaleFactor>5.00000000e+001</ScaleFactor>
#       <!-- Dark output -->
#       <Vblank>0.0550</Vblank>
#     </FluoroWetlabECO_AFL_FL_Sensor>
#   </sensor>
#   <sensor Channel="9" >
#     <!-- A/D voltage 5, Turbidity Meter, WET Labs, ECO-NTU -->
#     <TurbidityMeter SensorID="67" >
#       <SerialNumber>FLNTURT-2496</SerialNumber>
#       <CalibrationDate>08-May-2019</CalibrationDate>
#       <ScaleFactor>189.000000</ScaleFactor>
#       <!-- Dark output -->
#       <DarkVoltage>0.071000</DarkVoltage>
#     </TurbidityMeter>
#   </sensor>
# </Sensors>
# datcnv_date = Jul 29 2019 09:53:13, 7.26.7.129 [datcnv_vars = 15]
# datcnv_in = C:\DATA\072919_fcr50.hex C:\DATA\SBE19plusV2_7809.xmlcon
# datcnv_skipover = 0
# datcnv_ox_hysteresis_correction = yes
# datcnv_ox_tau_correction = yes
# filter_date = Jul 29 2019 09:53:41, 7.26.7.129
# filter_in = C:\DATA\072919_fcr50.cnv
# filter_low_pass_tc_A = 0.030
# filter_low_pass_tc_B = 0.150
# filter_low_pass_A_vars = prdM prdE tv290C density00
# filter_low_pass_B_vars = depFM dz/dtM sbeox0Mg/L sbeox0PS specc c0uS/cm flECO-AFL ph orp par/sat/log turbWETntu0
# alignctd_date = Jul 29 2019 09:54:02, 7.26.7.129
# alignctd_in = C:\DATA\072919_fcr50.cnv
# alignctd_adv = dz/dtM 1.000, sbeox0Mg/L 1.000, sbeox0PS 1.000, specc 1.000, c0uS/cm 1.000, flECO-AFL 1.000, ph 1.000, orp 1.000, turbWETntu0 1.000                                                                                 
# file_type = ascii
*END*
     -0.556 3.7255e-08     6.6388     81.655      3.202   3.259790    -0.1127     10.806  -136.3103 1.2016e+03    -0.4334     -0.545     -0.791    25.8833   996.8232 0.0000e+00
     -0.556 4.0981e-07     6.6368     81.631      3.118   3.174012    -0.1189     11.133  -184.6936 9.1733e+02    -0.4443     -0.545     -0.791    25.8831   996.8233 0.0000e+00
     -0.556      0.000     6.6362     81.623      3.156   3.212306    -0.1257     11.288  -382.7392 1.1426e+03    -0.4174     -0.545     -0.790    25.8831   996.8232 0.0000e+00
     -0.556      0.000     6.6375     81.638      3.036   3.089140    -0.1162     11.312  -606.4230 1.3720e+03    -0.3054     -0.545     -0.791    25.8828   996.8234 0.0000e+00
     -0.556      0.001     6.6388     81.652      2.776   2.825412    -0.1083     11.253  -802.5253 1.3780e+03    -0.2365     -0.546     -0.792    25.8824   996.8235 0.0000e+00
     -0.555      0.001     6.6395     81.659      2.514   2.558222    -0.1084     11.143  -937.4216 1.3226e+03    -0.2395     -0.545     -0.790    25.8820   996.8236 0.0000e+00
     -0.555      0.001     6.6405     81.669      2.352   2.393174    -0.1096     10.979 -1003.8975 1.2789e+03    -0.2767     -0.544     -0.790    25.8816   996.8237 0.0000e+00
     -0.555      0.001     6.6415     81.680      2.185   2.223850    -0.1145     10.891  -991.2705 1.3667e+03    -0.3258     -0.544     -0.789    25.8816   996.8237 0.0000e+00
     -0.555      0.001     6.6428     81.695      1.996   2.031675    -0.1158     11.056  -919.9179 1.2094e+03    -0.4071     -0.544     -0.789    25.8803   996.8240 0.0000e+00
     -0.555      0.000     6.6449     81.720      1.874   1.907135    -0.1160     11.370  -873.8035 6.7420e+02    -0.5061     -0.545     -0.790    25.8783   996.8245 0.0000e+00
     -0.555      0.000     6.6474     81.749      1.827   1.858579    -0.1168     11.562  -856.6736 2.5756e+02    -0.5401     -0.544     -0.789    25.8768   996.8248 0.0000e+00
     -0.555      0.001     6.6500     81.782      2.042   2.078206    -0.1168     11.177  -706.8652 1.6648e+02    -0.5230     -0.544     -0.789    25.8756   996.8251 0.0000e+00
     -0.555      0.005     6.6523     81.811      4.857   4.942796    -0.1168      9.987  -109.6671 4.4048e+02    -0.4957     -0.544     -0.789    25.8753   996.8252 0.0000e+00
     -0.555      0.022     6.6523     81.827     15.240  15.516318    -0.1159      8.813   489.9254 9.7174e+02    -0.4396     -0.544     -0.789    25.8747   996.8254 0.0000e+00
     -0.554      0.061     6.6468     81.825     29.121  29.672938    -0.1578      8.404   428.5492 1.3054e+03    -0.0412     -0.543     -0.787    25.8746   996.8253 0.0000e+00
     -0.553      0.121     6.6362     81.810     35.911  36.639892    -0.6327      8.499   216.3292 1.3909e+03     4.2225     -0.543     -0.788    25.8741   996.8256 0.0000e+00
     -0.539      0.186     6.6266     81.808     36.600  37.397002    -1.4883      8.690   209.1946 1.4190e+03    12.0152     -0.542     -0.787    25.8746   996.8252 0.0000e+00
     -0.486      0.241     6.6226     81.839     36.532  37.367312    -1.9458      8.845   214.0001 1.4318e+03    16.2150     -0.498     -0.723    25.8720   996.8287 0.0000e+00
     -0.383      0.272     6.6282     81.954     36.441  37.296548    -1.8727      8.945   217.8181 1.4433e+03    16.2652     -0.383     -0.555    25.9089   996.8256 0.0000e+00
     -0.262      0.274     6.6445     82.179     36.374  37.239655    -0.4307      9.011   220.7704 1.4406e+03    12.7528     -0.246     -0.356    26.0081   996.8011 0.0000e+00
     -0.164      0.246     6.6670     82.465     36.319  37.187233     2.2335      9.056   223.0236 1.4231e+03     6.2239     -0.144     -0.208    26.0937   996.7782 0.0000e+00
     -0.109      0.191     6.6920     82.776     36.302  37.170509     3.6794      9.084   224.6702 1.3927e+03     2.6400     -0.094     -0.136    26.1440   996.7652 0.0000e+00
     -0.088      0.124     6.7172     83.086     36.297  37.164403     3.8128      9.104   225.5364 1.3179e+03     2.3237     -0.082     -0.119    26.1741   996.7571 0.0000e+00
     -0.084      0.064     6.7394     83.358     36.249  37.113393     3.8637      9.119   226.2696 1.0849e+03     2.3671     -0.082     -0.119    26.1861   996.7539 0.0000e+00
     -0.085      0.025     6.7557     83.557     36.199  37.061546     3.9226      9.128   227.1686 7.0065e+02     2.4763     -0.084     -0.122    26.1901   996.7528 0.0000e+00
     -0.086      0.006     6.7658     83.680     36.185  37.045303     3.9446      9.135   227.9736 4.3833e+02     2.5301     -0.085     -0.123    26.1893   996.7530 0.0000e+00
     -0.086      0.001     6.7706     83.736     36.185  37.043944     3.9389      9.142   228.3460 5.4914e+02     2.5255     -0.084     -0.122    26.1881   996.7533 0.0000e+00
     -0.086      0.000     6.7699     83.723     36.187  37.045123     3.9397      9.146   228.9179 9.3271e+02     2.5191     -0.084     -0.122    26.1863   996.7538 0.0000e+00
     -0.085      0.001     6.7658     83.670     36.202  37.059548     3.9194      9.147   229.9844 1.2594e+03     2.5177     -0.084     -0.121    26.1857   996.7539 0.0000e+00
     -0.085      0.001     6.7608     83.606     36.235  37.091404     3.8755      9.149   230.8298 1.4032e+03     2.5097     -0.083     -0.121    26.1841   996.7543 0.0000e+00
     -0.084      0.001     6.7550     83.534     36.318  37.176394     3.8511      9.151   231.7396 1.4427e+03     2.4877     -0.082     -0.120    26.1807   996.7553 0.0000e+00
     -0.084      0.000     6.7483     83.456     36.461  37.325477     3.8410      9.150   233.2412 1.4496e+03     2.4806     -0.083     -0.120    26.1782   996.7559 0.0000e+00
     -0.084 1.8614e-08     6.7423     83.394     36.562  37.434064     3.8488      9.146   235.3912 1.4520e+03     2.4901     -0.083     -0.121    26.1767   996.7562 0.0000e+00
     -0.084 2.0475e-07     6.7438     83.425     36.594  37.473731     3.8753      9.141   237.3437 1.4504e+03     2.5045     -0.083     -0.120    26.1747   996.7568 0.0000e+00
     -0.085 2.0475e-07     6.7653     83.704     36.601  37.487717     3.8853      9.133   237.9209 1.4481e+03     2.5235     -0.083     -0.121    26.1734   996.7572 0.0000e+00
     -0.085 1.8614e-08     6.8201     84.395     36.584  37.476231     3.8823      9.125   237.7238 1.4428e+03     2.5227     -0.083     -0.121    26.1775   996.7562 0.0000e+00
     -0.085 1.6922e-09     6.9103     85.523     36.565  37.461814     3.8825      9.119   236.7679 1.4354e+03     2.4949     -0.083     -0.120    26.1862   996.7539 0.0000e+00
     -0.085 1.5383e-10     7.0201     86.892     36.540  37.440354     3.8873      9.115   235.1389 1.4286e+03     2.4824     -0.082     -0.119    26.1953   996.7515 0.0000e+00
     -0.085 1.3985e-11     7.1293     88.252     36.504  37.407200     3.8968      9.110   234.7197 1.4219e+03     2.5029     -0.083     -0.120    26.2044   996.7491 0.0000e+00
     -0.085 1.2714e-12     7.2230     89.418     36.473  37.378328     3.9023      9.104   235.5705 1.4182e+03     2.5133     -0.082     -0.120    26.2124   996.7469 0.0000e+00
     -0.085 1.1558e-13     7.2903     90.255     36.438  37.345163     3.9106      9.098   235.9612 1.4160e+03     2.5088     -0.083     -0.120    26.2196   996.7450 0.0000e+00
     -0.084 1.0507e-14     7.3374     90.842     36.416  37.323588     3.9285      9.093   235.3144 1.4112e+03     2.5149     -0.082     -0.119    26.2263   996.7432 0.0000e+00
     -0.084 9.5520e-16     7.3837     91.418     36.400  37.307893     3.9452      9.089   234.2890 1.3555e+03     2.5215     -0.083     -0.120    26.2314   996.7418 0.0000e+00
     -0.084 8.6835e-17     7.4391     92.106     36.374  37.282335     3.9566      9.084   233.9743 1.1634e+03     2.5224     -0.082     -0.120    26.2352   996.7408 0.0000e+00
     -0.084 7.8940e-18     7.4936     92.785     36.358  37.268472     3.9792      9.076   234.3478 8.3027e+02     2.5262     -0.082     -0.120    26.2381   996.7400 0.0000e+00
     -0.084 7.1765e-19     7.5303     93.243     36.355  37.267222     4.0101      9.068   234.5895 5.0887e+02     2.5013     -0.083     -0.120    26.2399   996.7395 0.0000e+00
     -0.084 6.5240e-20     7.5423     93.393     36.355  37.267232     4.0183      9.061   234.5745 3.8432e+02     2.4512     -0.082     -0.119    26.2409   996.7393 0.0000e+00
     -0.084 5.9310e-21     7.5288     93.228     36.355  37.268584     4.0171      9.055   234.5100 4.9460e+02     2.4442     -0.082     -0.119    26.2425   996.7388 0.0000e+00
     -0.084 5.3920e-22     7.4891     92.737     36.370  37.283576     4.0301      9.049   234.6697 7.4845e+02     2.4822     -0.082     -0.120    26.2452   996.7381 0.0000e+00
     -0.084 4.9017e-23     7.4209     91.893     36.407  37.321545     4.0379      9.045   234.8708 1.0356e+03     2.5178     -0.082     -0.119    26.2475   996.7374 0.0000e+00
     -0.084 4.4560e-24     7.3264     90.721     36.432  37.346821     4.0242      9.040   234.9621 1.2734e+03     2.5152     -0.082     -0.119    26.2491   996.7370 0.0000e+00
     -0.084 4.0510e-25     7.2176     89.373     36.422  37.335289     4.0117      9.035   235.1720 1.4027e+03     2.4832     -0.082     -0.119    26.2500   996.7368 0.0000e+00
     -0.084 3.6827e-26     7.1129     88.074     36.398  37.309069     4.0164      9.030   235.6020 1.4364e+03     2.4589     -0.082     -0.119    26.2502   996.7367 0.0000e+00
     -0.084 3.3479e-27     7.0292     87.034     36.373  37.283690     4.0208      9.024   236.1169 1.4372e+03     2.4501     -0.082     -0.119    26.2501   996.7368 0.0000e+00
     -0.084 3.0435e-28     6.9762     86.378     36.372  37.282328     4.0214      9.021   236.0634 1.4339e+03     2.4747     -0.082     -0.119    26.2491   996.7371 0.0000e+00
     -0.084 2.7669e-29     6.9609     86.189     36.382  37.292602     4.0239      9.019   235.5574 1.4296e+03     2.5277     -0.082     -0.119    26.2474   996.7375 0.0000e+00
     -0.084 2.5153e-30     6.9874     86.518     36.370  37.280954     4.0244      9.017   235.3336 1.4269e+03     2.5337     -0.082     -0.119    26.2461   996.7378 0.0000e+00
     -0.084 2.2867e-31     7.0470     87.257     36.358  37.268448     4.0624      9.015   235.2499 1.4269e+03     2.4494     -0.082     -0.119    26.2454   996.7380 0.0000e+00
     -0.084 2.0788e-32     7.1254     88.227     36.358  37.268342     4.1462      9.012   235.0612 1.4278e+03     2.3594     -0.081     -0.118    26.2450   996.7381 0.0000e+00
     -0.084 1.8898e-33     7.2093     89.265     36.369  37.279674     4.1962      9.007   234.6862 1.4308e+03     2.3307     -0.082     -0.119    26.2448   996.7382 0.0000e+00
     -0.084 1.7180e-34     7.2859     90.215     36.368  37.278510     4.1988      9.002   233.8139 1.4348e+03     2.2997     -0.082     -0.119    26.2452   996.7380 0.0000e+00
     -0.084 1.5618e-35     7.3477     90.982     36.344  37.254274     4.2204      8.996   232.8603 1.4378e+03     2.3445     -0.082     -0.119    26.2457   996.7379 0.0000e+00
     -0.083 1.4198e-36     7.3887     91.489     36.330  37.240529     4.2750      8.989   232.6205 1.4402e+03     2.4793     -0.082     -0.119    26.2459   996.7379 0.0000e+00
     -0.083 1.2907e-37     7.4073     91.719     36.329  37.239279     4.3133      8.983   232.8930 1.4427e+03     2.5205     -0.081     -0.118    26.2457   996.7379 0.0000e+00
