* Sea-Bird SBE19plus  Data File:
* FileName = C:\DATA\07292020_ccr50_0005.hex
* Software version 2.8.0.119
* Temperature SN = 7809
* Conductivity SN = 7809
* System UpLoad Time = Jul 29 2020 17:32:40
* <ApplicationData>
* <Seaterm232>
* <SoftwareVersion>2.8.0.119</SoftwareVersion>
* <BuildDate>07-Nov-2018</BuildDate>
* </Seaterm232>
* </ApplicationData>
* <InstrumentState>
* <HardwareData DeviceType='SBE19plus' SerialNumber='01907809'>
*
*    <Manufacturer>Sea-Bird Electronics, Inc.</Manufacturer>
*
*    <FirmwareVersion>3.1.8</FirmwareVersion>
*
*    <FirmwareDate>Mar  9 2016 16:22:29</FirmwareDate>
*
*    <CommandSetVersion>1.4</CommandSetVersion>
*
*    <PCBAssembly PCBSerialNum='120721' AssemblyNum='41054J'/>
*
*    <PCBAssembly PCBSerialNum='120715' AssemblyNum='41967A'/>
*
*    <PCBAssembly PCBSerialNum='116699' AssemblyNum='41606'/>
*
*    <PCBAssembly PCBSerialNum='120719' AssemblyNum='41059D'/>
*
*    <MfgDate>28-Apr-2017</MfgDate>
*
*    <InternalSensors>
*
*       <Sensor id='Main Temperature'>
*
*          <type>temperature0</type>
*
*          <SerialNumber>01907809</SerialNumber>
*
*       </Sensor>
*
*       <Sensor id='Main Conductivity'>
*
*          <type>conductivity-0</type>
*
*          <SerialNumber>01907809</SerialNumber>
*
*       </Sensor>
*
*       <Sensor id='Main Pressure'>
*
*          <type>strain-0</type>
*
*          <SerialNumber>10586018</SerialNumber>
*
*       </Sensor>
*
*    </InternalSensors>
*
*    <ExternalSensors>
*
*       <Sensor id='volt 0'>
*
*          <type>pH</type>
*
*          <SerialNumber>27-0363</SerialNumber>
*
*       </Sensor>
*
*       <Sensor id='volt 1'>
*
*          <type>ORP</type>
*
*          <SerialNumber>27-0363</SerialNumber>
*
*       </Sensor>
*
*       <Sensor id='volt 2'>
*
*          <type>OXY</type>
*
*          <SerialNumber>43-0434</SerialNumber>
*
*       </Sensor>
*
*       <Sensor id='volt 3'>
*
*          <type>PAR</type>
*
*          <SerialNumber>1122</SerialNumber>
*
*       </Sensor>
*
*       <Sensor id='volt 4'>
*
*          <type>ECO AFL/FL</type>
*
*          <SerialNumber>FLNTURT-2496</SerialNumber>
*
*       </Sensor>
*
*       <Sensor id='volt 5'>
*
*          <type>ECO-NTU</type>
*
*          <SerialNumber>FLNTURT-2496</SerialNumber>
*
*       </Sensor>
*
*       <Sensor id='serial'>
*
*          <type>not assigned</type>
*
*          <SerialNumber>not assigned</SerialNumber>
*
*       </Sensor>
*
*    </ExternalSensors>
*
* </HardwareData>
* <StatusData DeviceType='SBE19plus' SerialNumber='01907809'>
*
*    <DateTime>2020-07-29T04:26:45</DateTime>
*
*    <LoggingState>not logging</LoggingState>
*
*    <EventSummary numEvents='0'/>
*
*    <Power>
*
*       <vMain>12.1</vMain>
*
*       <vLith>8.8</vLith>
*
*       <iMain>63.1</iMain>
*
*       <iPump>40.5</iPump>
*
*       <iExt01>19.6</iExt01>
*
*       <iExt2345>37.0</iExt2345>
*
*    </Power>
*
*    <MemorySummary>
*
*       <Bytes>312892</Bytes>
*
*       <Samples>13604</Samples>
*
*       <SamplesFree>2847184</SamplesFree>
*
*       <SampleLength>23</SampleLength>
*
*       <Profiles>5</Profiles>
*
*    </MemorySummary>
*
* </StatusData>
* <ConfigurationData DeviceType='SBE19plus' SerialNumber='01907809'>
*
*    <ProfileMode>
*
*       <ScansToAverage>1</ScansToAverage>
*
*       <MinimumCondFreq>5</MinimumCondFreq>
*
*       <PumpDelay>30</PumpDelay>
*
*       <AutoRun>no</AutoRun>
*
*       <IgnoreSwitch>no</IgnoreSwitch>
*
*    </ProfileMode>
*
*    <Battery>
*
*       <Type>alkaline</Type>
*
*       <CutOff>7.5</CutOff>
*
*    </Battery>
*
*    <DataChannels>
*
*       <ExtVolt0>yes</ExtVolt0>
*
*       <ExtVolt1>yes</ExtVolt1>
*
*       <ExtVolt2>yes</ExtVolt2>
*
*       <ExtVolt3>yes</ExtVolt3>
*
*       <ExtVolt4>yes</ExtVolt4>
*
*       <ExtVolt5>yes</ExtVolt5>
*
*       <SBE38>no</SBE38>
*
*       <WETLABS>no</WETLABS>
*
*       <OPTODE>no</OPTODE>
*
*       <SBE63>no</SBE63>
*
*       <SeaFET>no</SeaFET>
*
*       <GTD>no</GTD>
*
*    </DataChannels>
*
*    <EchoCharacters>yes</EchoCharacters>
*
*    <OutputExecutedTag>yes</OutputExecutedTag>
*
*    <OutputFormat>raw HEX</OutputFormat>
*
* </ConfigurationData>
* <CalibrationCoefficients DeviceType='SBE19plus' SerialNumber='01907809'>
*
*    <Calibration format='TEMP1' id='Main Temperature'>
*
*       <SerialNum>01907809</SerialNum>
*
*       <CalDate>17-Feb-20</CalDate>
*
*       <TA0>1.231828e-03</TA0>
*
*       <TA1>2.765479e-04</TA1>
*
*       <TA2>-9.738161e-07</TA2>
*
*       <TA3>1.725813e-07</TA3>
*
*       <TOFFSET>0.000000e+00</TOFFSET>
*
*    </Calibration>
*
*    <Calibration format='WBCOND0' id='Main Conductivity'>
*
*       <SerialNum>01907809</SerialNum>
*
*       <CalDate>17-Feb-20</CalDate>
*
*       <G>-1.004905e+00</G>
*
*       <H>1.264249e-01</H>
*
*       <I>-3.338479e-05</I>
*
*       <J>1.822406e-05</J>
*
*       <CPCOR>-9.570000e-08</CPCOR>
*
*       <CTCOR>3.250000e-06</CTCOR>
*
*       <CSLOPE>1.000000e+00</CSLOPE>
*
*    </Calibration>
*
*    <Calibration format='STRAIN0' id='Main Pressure'>
*
*       <SerialNum>10586018</SerialNum>
*
*       <CalDate>30-Jan-20</CalDate>
*
*       <PA0>-8.839367e-03</PA0>
*
*       <PA1>4.852353e-04</PA1>
*
*       <PA2>-3.463847e-12</PA2>
*
*       <PTCA0>5.254672e+05</PTCA0>
*
*       <PTCA1>5.138564e+00</PTCA1>
*
*       <PTCA2>-2.726934e-01</PTCA2>
*
*       <PTCB0>2.516687e+01</PTCB0>
*
*       <PTCB1>3.750000e-04</PTCB1>
*
*       <PTCB2>0.000000e+00</PTCB2>
*
*       <PTEMPA0>-5.396332e+01</PTEMPA0>
*
*       <PTEMPA1>5.390761e+01</PTEMPA1>
*
*       <PTEMPA2>-2.231787e-02</PTEMPA2>
*
*       <POFFSET>6.460000e-01</POFFSET>
*
*       <PRANGE>1.600000e+02</PRANGE>
*
*    </Calibration>
*
*    <Calibration format='VOLT0' id='Volt 0'>
*
*       <OFFSET>-4.920000e-02</OFFSET>
*
*       <SLOPE>1.248122e+00</SLOPE>
*
*    </Calibration>
*
*    <Calibration format='VOLT0' id='Volt 1'>
*
*       <OFFSET>-4.784000e-02</OFFSET>
*
*       <SLOPE>1.248871e+00</SLOPE>
*
*    </Calibration>
*
*    <Calibration format='VOLT0' id='Volt 2'>
*
*       <OFFSET>-4.864632e-02</OFFSET>
*
*       <SLOPE>1.248714e+00</SLOPE>
*
*    </Calibration>
*
*    <Calibration format='VOLT0' id='Volt 3'>
*
*       <OFFSET>-4.743790e-02</OFFSET>
*
*       <SLOPE>1.248571e+00</SLOPE>
*
*    </Calibration>
*
*    <Calibration format='VOLT0' id='Volt 4'>
*
*       <OFFSET>-4.671263e-02</OFFSET>
*
*       <SLOPE>1.248951e+00</SLOPE>
*
*    </Calibration>
*
*    <Calibration format='VOLT0' id='Volt 5'>
*
*       <OFFSET>-4.871053e-02</OFFSET>
*
*       <SLOPE>1.249136e+00</SLOPE>
*
*    </Calibration>
*
*    <Calibration format='FREQ0' id='external frequency channel'>
*
*       <EXTFREQSF>1.000014e+00</EXTFREQSF>
*
*    </Calibration>
*
* </CalibrationCoefficients>
* <EventCounters DeviceType='SBE19plus' SerialNumber='01907809'>
*
*    <EventSummary numEvents='0'/>
*
* </EventCounters></InstrumentState>
* <Headers>
*
* cast   5 29 Jul 2020 00:52:58 samples 12751 to 13604, avg = 1, stop = mag switch
*
# nquan = 16
# nvalues = 854                         
# units = specified
# name 0 = depFM: Depth [fresh water, m]
# name 1 = dz/dtM: Descent Rate [m/s]
# name 2 = sbeox0ML/L: Oxygen, SBE 43 [ml/l]
# name 3 = sbeox0PS: Oxygen, SBE 43 [% saturation]
# name 4 = specc: Specific Conductance [uS/cm]
# name 5 = c0uS/cm: Conductivity [uS/cm]
# name 6 = flECO-AFL: Fluorescence, WET Labs ECO-AFL/FL [mg/m^3]
# name 7 = ph: pH
# name 8 = orp: Oxidation Reduction Potential [mV]
# name 9 = par/sat/log: PAR/Logarithmic, Satlantic
# name 10 = turbWETntu0: Turbidity, WET Labs ECO [NTU]
# name 11 = prdM: Pressure, Strain Gauge [db]
# name 12 = prdE: Pressure, Strain Gauge [psi]
# name 13 = tv290C: Temperature [ITS-90, deg C]
# name 14 = density00: Density [density, kg/m^3]
# name 15 = flag:  0.000e+00
# span 0 =     -0.482,      3.782       
# span 1 =     -0.329,      0.199       
# span 2 =     0.9207,     5.6259       
# span 3 =     15.865,    105.684       
# span 4 =      5.478,     59.631       
# span 5 =   6.044108,  62.233243       
# span 6 =    -2.4512,   267.0882       
# span 7 =      7.023,      7.623       
# span 8 =   126.6552,   296.2976       
# span 9 = 7.2910e+00, 2.7566e+03       
# span 10 =    -0.2072,    38.2937      
# span 11 =     -0.478,      3.710      
# span 12 =     -0.694,      5.381      
# span 13 =    24.4154,    30.3744      
# span 14 =   995.5597,   997.2366      
# span 15 = 0.0000e+00, 0.0000e+00      
# interval = seconds: 0.25
# start_time = Jul 29 2020 00:52:58 [Instrument's time stamp, header]
# bad_flag = -9.990e-29
# <Sensors count="9" >
#   <sensor Channel="1" >
#     <!-- Count, Temperature -->
#     <TemperatureSensor SensorID="58" >
#       <SerialNumber>7809</SerialNumber>
#       <CalibrationDate>17-Feb-20</CalibrationDate>
#       <A0>1.23182765e-003</A0>
#       <A1>2.76547921e-004</A1>
#       <A2>-9.73816136e-007</A2>
#       <A3>1.72581310e-007</A3>
#       <Slope>1.00000000</Slope>
#       <Offset>0.0000</Offset>
#     </TemperatureSensor>
#   </sensor>
#   <sensor Channel="2" >
#     <!-- Frequency 0, Conductivity -->
#     <ConductivitySensor SensorID="3" >
#       <SerialNumber>7809</SerialNumber>
#       <CalibrationDate>17-Feb-20</CalibrationDate>
#       <UseG_J>1</UseG_J>
#       <!-- Cell const and series R are applicable only for wide range sensors. -->
#       <SeriesR>0.0000</SeriesR>
#       <CellConst>2000.0000</CellConst>
#       <ConductivityType>0</ConductivityType>
#       <Coefficients equation="0" >
#         <A>0.00000000e+000</A>
#         <B>0.00000000e+000</B>
#         <C>0.00000000e+000</C>
#         <D>0.00000000e+000</D>
#         <M>0.0</M>
#         <CPcor>-9.57000000e-008</CPcor>
#       </Coefficients>
#       <Coefficients equation="1" >
#         <G>-1.00490463e+000</G>
#         <H>1.26424869e-001</H>
#         <I>-3.33847890e-005</I>
#         <J>1.82240562e-005</J>
#         <CPcor>-9.57000000e-008</CPcor>
#         <CTcor>3.2500e-006</CTcor>
#         <!-- WBOTC not applicable unless ConductivityType = 1. -->
#         <WBOTC>0.00000000e+000</WBOTC>
#       </Coefficients>
#       <Slope>1.00000000</Slope>
#       <Offset>0.00000</Offset>
#     </ConductivitySensor>
#   </sensor>
#   <sensor Channel="3" >
#     <!-- Count, Pressure, Strain Gauge -->
#     <PressureSensor SensorID="46" >
#       <SerialNumber>7809</SerialNumber>
#       <CalibrationDate>30-Jan-20</CalibrationDate>
#       <PA0>-8.83936748e-003</PA0>
#       <PA1>4.85235293e-004</PA1>
#       <PA2>-3.46384727e-012</PA2>
#       <PTEMPA0>-5.39633232e+001</PTEMPA0>
#       <PTEMPA1>5.39076104e+001</PTEMPA1>
#       <PTEMPA2>-2.23178720e-002</PTEMPA2>
#       <PTCA0>5.25467230e+005</PTCA0>
#       <PTCA1>5.13856356e+000</PTCA1>
#       <PTCA2>-2.72693365e-001</PTCA2>
#       <PTCB0>2.51668750e+001</PTCB0>
#       <PTCB1>3.75000000e-004</PTCB1>
#       <PTCB2>0.00000000e+000</PTCB2>
#       <Offset>0.000000</Offset>
#     </PressureSensor>
#   </sensor>
#   <sensor Channel="4" >
#     <!-- A/D voltage 0, Oxygen, SBE 43 -->
#     <OxygenSensor SensorID="38" >
#       <SerialNumber>0434</SerialNumber>
#       <CalibrationDate>17-Mar-20</CalibrationDate>
#       <Use2007Equation>1</Use2007Equation>
#       <CalibrationCoefficients equation="0" >
#         <!-- Coefficients for Owens-Millard equation. -->
#         <Boc>0.0000</Boc>
#         <Soc>0.0000e+000</Soc>
#         <offset>0.0000</offset>
#         <Pcor>0.00e+000</Pcor>
#         <Tcor>0.0000</Tcor>
#         <Tau>0.0</Tau>
#       </CalibrationCoefficients>
#       <CalibrationCoefficients equation="1" >
#         <!-- Coefficients for Sea-Bird equation - SBE calibration in 2007 and later. -->
#         <Soc>4.3425e-001</Soc>
#         <offset>-0.6091</offset>
#         <A>-4.2837e-003</A>
#         <B> 1.6743e-004</B>
#         <C>-2.2978e-006</C>
#         <D0> 2.5826e+000</D0>
#         <D1> 1.92634e-004</D1>
#         <D2>-4.64803e-002</D2>
#         <E> 3.6000e-002</E>
#         <Tau20> 1.3000</Tau20>
#         <H1>-3.3000e-002</H1>
#         <H2> 5.0000e+003</H2>
#         <H3> 1.4500e+003</H3>
#       </CalibrationCoefficients>
#     </OxygenSensor>
#   </sensor>
#   <sensor Channel="5" >
#     <!-- A/D voltage 1, PAR/Logarithmic, Satlantic -->
#     <PARLog_SatlanticSensor SensorID="76" >
#       <SerialNumber>1122</SerialNumber>
#       <CalibrationDate>08-May-2019</CalibrationDate>
#       <a0>9.7456e-001</a0>
#       <a1>8.1640e-001</a1>
#       <Im>1.3589e+000</Im>
#       <Multiplier>1.0000e+000</Multiplier>
#     </PARLog_SatlanticSensor>
#   </sensor>
#   <sensor Channel="6" >
#     <!-- A/D voltage 2, pH -->
#     <pH_Sensor SensorID="43" >
#       <SerialNumber>0363</SerialNumber>
#       <CalibrationDate>24-Feb-20</CalibrationDate>
#       <Slope>4.6470</Slope>
#       <Offset>2.5043</Offset>
#     </pH_Sensor>
#   </sensor>
#   <sensor Channel="7" >
#     <!-- A/D voltage 3, Oxidation Reduction Potential -->
#     <OxidationReductionPotentialSensor SensorID="41" >
#       <SerialNumber>0363</SerialNumber>
#       <CalibrationDate>24-Feb-20</CalibrationDate>
#       <B>2.499480</B>
#       <M>-0.496195</M>
#       <Offset>0.0</Offset>
#     </OxidationReductionPotentialSensor>
#   </sensor>
#   <sensor Channel="8" >
#     <!-- A/D voltage 4, Fluorometer, WET Labs ECO-AFL/FL -->
#     <FluoroWetlabECO_AFL_FL_Sensor SensorID="20" >
#       <SerialNumber>FLNTURT-2496</SerialNumber>
#       <CalibrationDate>31-Jan-2020</CalibrationDate>
#       <ScaleFactor>5.50000000e+001</ScaleFactor>
#       <!-- Dark output -->
#       <Vblank>0.0700</Vblank>
#     </FluoroWetlabECO_AFL_FL_Sensor>
#   </sensor>
#   <sensor Channel="9" >
#     <!-- A/D voltage 5, Turbidity Meter, WET Labs, ECO-NTU -->
#     <TurbidityMeter SensorID="67" >
#       <SerialNumber>FLNTURT-2496</SerialNumber>
#       <CalibrationDate>31-Jan-20</CalibrationDate>
#       <ScaleFactor>198.000000</ScaleFactor>
#       <!-- Dark output -->
#       <DarkVoltage>0.070000</DarkVoltage>
#     </TurbidityMeter>
#   </sensor>
# </Sensors>
# datcnv_date = Jul 29 2020 17:41:18, 7.26.7.129 [datcnv_vars = 15]
# datcnv_in = C:\DATA\07292020_ccr10.hex C:\DATA\SBE19plusV2_7809.xmlcon
# datcnv_skipover = 0
# datcnv_ox_hysteresis_correction = yes
# datcnv_ox_tau_correction = yes
# filter_date = Jul 29 2020 17:42:09, 7.26.7.129
# filter_in = C:\DATA\07292020_ccr10.cnv
# filter_low_pass_tc_A = 0.030
# filter_low_pass_tc_B = 0.150
# filter_low_pass_A_vars = sbeox0ML/L prdM prdE tv290C density00
# filter_low_pass_B_vars = depFM dz/dtM sbeox0PS specc c0uS/cm flECO-AFL ph orp par/sat/log turbWETntu0
# alignctd_date = Jul 29 2020 17:42:43, 7.26.7.129
# alignctd_in = C:\DATA\07292020_ccr10.cnv
# alignctd_adv = dz/dtM 1.000, sbeox0PS 1.000, specc 1.000, c0uS/cm 1.000, flECO-AFL 1.000, ph 1.000, orp 1.000, turbWETntu0 1.000                                                                                                   
# file_type = ascii
*END*
     -0.422      0.077     5.5659     98.174     53.479  57.444795    -0.8511      7.222   158.7518 2.0262e+03    -0.1699     -0.425     -0.615    26.1114   996.7638 0.0000e+00
     -0.390      0.102     5.5177     98.160     53.745  58.125181    -0.8281      7.278   154.8377 1.0607e+03    -0.2072     -0.382     -0.554    26.6100   996.6309 0.0000e+00
     -0.352      0.126     5.4235     98.142     53.720  58.423264    -0.8183      7.351   151.6481 5.4138e+02     0.0328     -0.341     -0.496    27.5430   996.3812 0.0000e+00
     -0.318      0.146     5.3537     98.130     53.636  58.635374    -0.6944      7.428   147.6338 4.9905e+02     3.5910     -0.313     -0.454    28.2506   996.1868 0.0000e+00
     -0.283      0.158     5.3073     98.170     53.468  58.720930    -0.4465      7.484   140.9745 4.8885e+02    10.2322     -0.280     -0.406    28.7315   996.0480 0.0000e+00
     -0.240      0.163     5.2729     98.283     53.273  58.695829    -0.3099      7.524   131.8755 4.7182e+02    13.8628     -0.238     -0.345    29.1004   995.9404 0.0000e+00
     -0.191      0.166     5.2477     98.449     53.136  58.649818    -0.2926      7.562   126.9268 4.5003e+02    13.8769     -0.186     -0.269    29.3652   995.8624 0.0000e+00
     -0.143      0.170     5.2186     98.711     53.052  58.609482    -0.1987      7.594   126.6552 4.2236e+02    10.6768     -0.138     -0.199    29.6627   995.7741 0.0000e+00
     -0.103      0.173     5.1953     99.122     52.954  58.525839    -0.0330      7.615   127.2149 3.7781e+02     4.8342     -0.100     -0.145    29.9387   995.6915 0.0000e+00
     -0.064      0.174     5.1872     99.646     52.829  58.400863     0.0510      7.623   127.8433 3.3739e+02     1.6695     -0.065     -0.095    30.1110   995.6395 0.0000e+00
     -0.021      0.177     5.1874    100.254     52.734  58.305441     0.0732      7.623   128.4022 3.2717e+02     1.4230     -0.022     -0.032    30.1970   995.6135 0.0000e+00
      0.026      0.183     5.1948    100.908     52.689  58.261487     0.1314      7.618   129.3271 3.2877e+02     1.4082      0.026      0.038    30.2385   995.6011 0.0000e+00
      0.075      0.190     5.2170    101.402     52.680  58.250588     0.1920      7.611   130.5944 3.1468e+02     1.3873      0.074      0.107    30.2588   995.5951 0.0000e+00
      0.123      0.196     5.2443    101.428     52.734  58.300709     0.2048      7.601   131.9378 2.7974e+02     1.3763      0.119      0.172    30.2666   995.5929 0.0000e+00
      0.175      0.199     5.2744    100.638     52.806  58.359270     0.1999      7.590   133.3518 2.4418e+02     1.3780      0.170      0.247    30.2743   995.5908 0.0000e+00
      0.230      0.199     5.3129     98.791     52.811  58.323335     0.2473      7.580   134.7850 2.2254e+02     1.4426      0.228      0.330    30.2848   995.5878 0.0000e+00
      0.283      0.198     5.3449     96.162     52.799  58.247320     0.3492      7.569   136.1884 2.1031e+02     1.5392      0.278      0.405    30.2833   995.5886 0.0000e+00
      0.331      0.196     5.3530     93.424     52.823  58.202389     0.4206      7.558   137.4143 2.0421e+02     1.5506      0.324      0.470    30.2724   995.5921 0.0000e+00
      0.378      0.188     5.3207     91.005     52.853  58.161111     0.4243      7.548   138.3362 2.0267e+02     1.4772      0.371      0.538    30.2592   995.5963 0.0000e+00
      0.428      0.172     5.2216     88.905     52.885  58.129270     0.4321      7.539   139.0757 2.0100e+02     1.4075      0.419      0.608    30.2197   995.6085 0.0000e+00
      0.477      0.147     5.0717     87.071     52.934  58.134928     0.4768      7.530   139.8164 1.9698e+02     1.3598      0.469      0.680    30.1544   995.6285 0.0000e+00
      0.522      0.117     4.9248     85.570     52.990  58.165918     0.5165      7.521   140.5801 1.9133e+02     1.3813      0.517      0.751    30.0864   995.6494 0.0000e+00
      0.552      0.082     4.8060     84.423     53.032  58.186281     0.5497      7.514   141.3405 1.8543e+02     1.4622      0.548      0.795    30.0128   995.6718 0.0000e+00
      0.563      0.048     4.7026     83.528     53.059  58.190522     0.5725      7.508   142.1278 1.8127e+02     1.4790      0.557      0.808    29.9429   995.6929 0.0000e+00
      0.561      0.020     4.6057     82.687     53.105  58.217154     0.5645      7.500   142.8720 1.7943e+02     1.4470      0.553      0.800    29.8990   995.7061 0.0000e+00
