* Sea-Bird SBE19plus  Data File:
* FileName = C:\DATA\073018_fcr50_0004.hex
* Software version 2.6.3.104 SB_Terminal.dll
* Temperature SN = 7809
* Conductivity SN = 7809
* System UpLoad Time = Jul 30 2018 16:26:27
* <ApplicationData>
* <Seaterm232>
* <SoftwareVersion>2.6.3.104</SoftwareVersion>
* <BuildDate>30-Jun-2017</BuildDate>
* </Seaterm232>
* </ApplicationData>
* cast   4 30 Jul 2018 13:37:22 samples 1889 to 2291, avg = 1, stop = mag switch
# nquan = 15
# nvalues = 303                         
# units = specified
# name 0 = depFM: Depth [fresh water, m]
# name 1 = dz/dtM: Descent Rate [m/s]
# name 2 = sbeox0Mg/L: Oxygen, SBE 43 [mg/l]
# name 3 = sbeox0PS: Oxygen, SBE 43 [% saturation]
# name 4 = specc: Specific Conductance [uS/cm]
# name 5 = c0uS/cm: Conductivity [uS/cm]
# name 6 = flECO-AFL: Fluorescence, WET Labs ECO-AFL/FL [mg/m^3]
# name 7 = ph: pH
# name 8 = orp: Oxidation Reduction Potential [mV]
# name 9 = par/sat/log: PAR/Logarithmic, Satlantic
# name 10 = turbWETntu0: Turbidity, WET Labs ECO [NTU]
# name 11 = prdM: Pressure, Strain Gauge [db]
# name 12 = prdE: Pressure, Strain Gauge [psi]
# name 13 = tv290C: Temperature [ITS-90, deg C]
# name 14 = flag:  0.000e+00
# span 0 =     -0.554,      3.408       
# span 1 =     -0.049,      0.232       
# span 2 =    -0.2950,    10.2796       
# span 3 =     -3.182,    125.226       
# span 4 =      0.927,    109.540       
# span 5 =   0.874991,  91.338681       
# span 6 =    -0.1890,     7.2867       
# span 7 =      6.184,      8.923       
# span 8 =    31.8247,   361.3625       
# span 9 = 9.9073e-01, 1.8668e+02       
# span 10 =    -0.1660,     8.6191      
# span 11 =     -0.544,      3.344      
# span 12 =     -0.789,      4.850      
# span 13 =    16.6434,    25.3760      
# span 14 = 0.0000e+00, 0.0000e+00      
# interval = seconds: 0.25
# start_time = Jul 30 2018 13:37:22 [Instrument's time stamp, header]
# bad_flag = -9.990e-29
# <Sensors count="9" >
#   <sensor Channel="1" >
#     <!-- Count, Temperature -->
#     <TemperatureSensor SensorID="58" >
#       <SerialNumber>7809</SerialNumber>
#       <CalibrationDate>09-Mar-18</CalibrationDate>
#       <A0>1.21093245e-003</A0>
#       <A1>2.84356597e-004</A1>
#       <A2>-1.94507398e-006</A2>
#       <A3>2.12806664e-007</A3>
#       <Slope>1.00000000</Slope>
#       <Offset>0.0000</Offset>
#     </TemperatureSensor>
#   </sensor>
#   <sensor Channel="2" >
#     <!-- Frequency 0, Conductivity -->
#     <ConductivitySensor SensorID="3" >
#       <SerialNumber>7809</SerialNumber>
#       <CalibrationDate>09-Mar-18</CalibrationDate>
#       <UseG_J>1</UseG_J>
#       <!-- Cell const and series R are applicable only for wide range sensors. -->
#       <SeriesR>0.0000</SeriesR>
#       <CellConst>2000.0000</CellConst>
#       <ConductivityType>0</ConductivityType>
#       <Coefficients equation="0" >
#         <A>0.00000000e+000</A>
#         <B>0.00000000e+000</B>
#         <C>0.00000000e+000</C>
#         <D>0.00000000e+000</D>
#         <M>0.0</M>
#         <CPcor>-9.57000000e-008</CPcor>
#       </Coefficients>
#       <Coefficients equation="1" >
#         <G>-1.00672082e+000</G>
#         <H>1.26906489e-001</H>
#         <I>-1.40584351e-004</I>
#         <J>2.47837121e-005</J>
#         <CPcor>-9.57000000e-008</CPcor>
#         <CTcor>3.2500e-006</CTcor>
#         <!-- WBOTC not applicable unless ConductivityType = 1. -->
#         <WBOTC>0.00000000e+000</WBOTC>
#       </Coefficients>
#       <Slope>1.00000000</Slope>
#       <Offset>0.00000</Offset>
#     </ConductivitySensor>
#   </sensor>
#   <sensor Channel="3" >
#     <!-- Count, Pressure, Strain Gauge -->
#     <PressureSensor SensorID="46" >
#       <SerialNumber>7809</SerialNumber>
#       <CalibrationDate>07-Mar-18</CalibrationDate>
#       <PA0>-4.08176359e-002</PA0>
#       <PA1>4.85188419e-004</PA1>
#       <PA2>-3.51168169e-012</PA2>
#       <PTEMPA0>-5.37806900e+001</PTEMPA0>
#       <PTEMPA1>5.36620721e+001</PTEMPA1>
#       <PTEMPA2>4.87214332e-002</PTEMPA2>
#       <PTCA0>5.25213435e+005</PTCA0>
#       <PTCA1>1.79532409e+000</PTCA1>
#       <PTCA2>-2.84353509e-001</PTCA2>
#       <PTCB0>2.51668750e+001</PTCB0>
#       <PTCB1>3.75000000e-004</PTCB1>
#       <PTCB2>0.00000000e+000</PTCB2>
#       <Offset>0.000000</Offset>
#     </PressureSensor>
#   </sensor>
#   <sensor Channel="4" >
#     <!-- A/D voltage 0, pH -->
#     <pH_Sensor SensorID="43" >
#       <SerialNumber>0363</SerialNumber>
#       <CalibrationDate>16-Mar-18</CalibrationDate>
#       <Slope>4.6194</Slope>
#       <Offset>2.5947</Offset>
#     </pH_Sensor>
#   </sensor>
#   <sensor Channel="5" >
#     <!-- A/D voltage 1, Oxidation Reduction Potential -->
#     <OxidationReductionPotentialSensor SensorID="41" >
#       <SerialNumber>0363</SerialNumber>
#       <CalibrationDate>16-Mar-18</CalibrationDate>
#       <B>2.499480</B>
#       <M>-0.496195</M>
#       <Offset>0.0</Offset>
#     </OxidationReductionPotentialSensor>
#   </sensor>
#   <sensor Channel="6" >
#     <!-- A/D voltage 2, Oxygen, SBE 43 -->
#     <OxygenSensor SensorID="38" >
#       <SerialNumber>0434</SerialNumber>
#       <CalibrationDate>13-Mar-18</CalibrationDate>
#       <Use2007Equation>1</Use2007Equation>
#       <CalibrationCoefficients equation="0" >
#         <!-- Coefficients for Owens-Millard equation. -->
#         <Boc>0.0000</Boc>
#         <Soc>0.0000e+000</Soc>
#         <offset>0.0000</offset>
#         <Pcor>0.00e+000</Pcor>
#         <Tcor>0.0000</Tcor>
#         <Tau>0.0</Tau>
#       </CalibrationCoefficients>
#       <CalibrationCoefficients equation="1" >
#         <!-- Coefficients for Sea-Bird equation - SBE calibration in 2007 and later. -->
#         <Soc>4.5718e-001</Soc>
#         <offset>-0.6113</offset>
#         <A>-4.0649e-003</A>
#         <B> 2.0945e-004</B>
#         <C>-3.3182e-006</C>
#         <D0> 2.5826e+000</D0>
#         <D1> 1.92634e-004</D1>
#         <D2>-4.64803e-002</D2>
#         <E> 3.6000e-002</E>
#         <Tau20> 1.2200</Tau20>
#         <H1>-3.3000e-002</H1>
#         <H2> 5.0000e+003</H2>
#         <H3> 1.4500e+003</H3>
#       </CalibrationCoefficients>
#     </OxygenSensor>
#   </sensor>
#   <sensor Channel="7" >
#     <!-- A/D voltage 3, PAR/Logarithmic, Satlantic -->
#     <PARLog_SatlanticSensor SensorID="76" >
#       <SerialNumber>1122</SerialNumber>
#       <CalibrationDate>22-Jun-2017</CalibrationDate>
#       <a0>9.6090e-001</a0>
#       <a1>8.0780e-001</a1>
#       <Im>1.3589e+000</Im>
#       <Multiplier>1.0000e+000</Multiplier>
#     </PARLog_SatlanticSensor>
#   </sensor>
#   <sensor Channel="8" >
#     <!-- A/D voltage 4, Fluorometer, WET Labs ECO-AFL/FL -->
#     <FluoroWetlabECO_AFL_FL_Sensor SensorID="20" >
#       <SerialNumber>FLNTURT-2496</SerialNumber>
#       <CalibrationDate>25-Jan-2017</CalibrationDate>
#       <ScaleFactor>5.30000000e+001</ScaleFactor>
#       <!-- Dark output -->
#       <Vblank>0.0560</Vblank>
#     </FluoroWetlabECO_AFL_FL_Sensor>
#   </sensor>
#   <sensor Channel="9" >
#     <!-- A/D voltage 5, Turbidity Meter, WET Labs, ECO-NTU -->
#     <TurbidityMeter SensorID="67" >
#       <SerialNumber>FLNTURT-2496</SerialNumber>
#       <CalibrationDate>25-Jan-2017</CalibrationDate>
#       <ScaleFactor>176.000000</ScaleFactor>
#       <!-- Dark output -->
#       <DarkVoltage>0.072000</DarkVoltage>
#     </TurbidityMeter>
#   </sensor>
# </Sensors>
# datcnv_date = Jul 30 2018 16:35:50, 7.26.7.114 [datcnv_vars = 14]
# datcnv_in = C:\DATA\073018_fcr20.hex C:\DATA\SBE19plusV2_7809.xmlcon
# datcnv_skipover = 0
# datcnv_ox_hysteresis_correction = yes
# datcnv_ox_tau_correction = yes
# filter_date = Jul 30 2018 16:36:33, 7.26.7.114
# filter_in = C:\DATA\073018_fcr20.cnv
# filter_low_pass_tc_A = 0.030
# filter_low_pass_tc_B = 0.150
# filter_low_pass_A_vars = prdM prdE tv290C
# filter_low_pass_B_vars = depFM dz/dtM sbeox0Mg/L sbeox0PS specc c0uS/cm flECO-AFL ph orp par/sat/log turbWETntu0
# alignctd_date = Jul 30 2018 16:36:57, 7.26.7.114
# alignctd_in = C:\DATA\073018_fcr20.cnv
# alignctd_adv = dz/dtM 1.000, sbeox0Mg/L 1.000, sbeox0PS 1.000, specc 1.000, c0uS/cm 1.000, flECO-AFL 1.000, ph 1.000, orp 1.000, turbWETntu0 1.000                                                                                 
# file_type = ascii
*END*
     -0.554 -8.668e-16     8.6975     99.805      0.927   0.874991    -0.1827      6.196   314.5470 1.2032e+02    -0.0079     -0.543     -0.787    22.1694 0.0000e+00
     -0.554 -9.535e-15     8.6924     99.746      0.940   0.887559    -0.1890      6.194   322.3079 1.2139e+02    -0.0423     -0.542     -0.786    22.1694 0.0000e+00
     -0.554 -1.049e-13     8.6874     99.688      0.967   0.912695    -0.1862      6.190   337.2395 1.2248e+02    -0.0091     -0.543     -0.787    22.1694 0.0000e+00
     -0.554 -1.154e-12     8.6923     99.744      0.981   0.925263    -0.1764      6.185   348.3860 1.2329e+02     0.0280     -0.543     -0.787    22.1693 0.0000e+00
     -0.553 -1.269e-11     8.6987     99.819      0.968   0.912695    -0.1717      6.184   356.6717 1.2430e+02     0.0097     -0.543     -0.787    22.1694 0.0000e+00
     -0.553 -1.396e-10     8.7033     99.871      0.941   0.887560    -0.1756      6.184   361.3625 1.2236e+02    -0.0169     -0.543     -0.787    22.1695 0.0000e+00
     -0.554 -1.536e-09     8.7053     99.894      0.927   0.875008    -0.1774      6.188   350.8979 1.1726e+02    -0.0198     -0.543     -0.788    22.1695 0.0000e+00
     -0.554 -1.689e-08     8.7021     99.856      0.940   0.887756    -0.1746      6.194   317.3028 1.1326e+02    -0.0244     -0.543     -0.788    22.1698 0.0000e+00
     -0.554 -1.858e-07     8.7007     99.840      0.970   0.914867    -0.1789      6.199   275.7483 1.1411e+02    -0.0425     -0.543     -0.788    22.1696 0.0000e+00
     -0.554 -1.810e-07     8.7045     99.883      1.007   0.949153    -0.1838      6.204   254.1417 1.1861e+02    -0.0561     -0.543     -0.788    22.1697 0.0000e+00
     -0.554 4.1596e-08     8.7035     99.872      1.112   1.048655    -0.1782      6.210   250.7660 1.2164e+02    -0.0061     -0.543     -0.788    22.1694 0.0000e+00
     -0.554 6.4230e-07     8.6984     99.814      1.438   1.356989    -0.1753      6.215   252.8288 1.2137e+02     0.1046     -0.543     -0.787    22.1699 0.0000e+00
     -0.554      0.000     8.6996     99.827      1.865   1.760131    -0.1765      6.218   252.7543 1.1827e+02     0.1845     -0.544     -0.788    22.1689 0.0000e+00
     -0.554      0.000     8.7029     99.867      2.110   1.991300    -0.1741      6.222   248.3168 1.1307e+02     0.2274     -0.544     -0.789    22.1696 0.0000e+00
     -0.554      0.001     8.7009     99.882      2.248   2.122740    -0.1738      6.225   249.6814 1.0922e+02     0.2267     -0.543     -0.787    22.1675 0.0000e+00
     -0.554      0.004     8.6759     99.893      2.723   2.588366    -0.1738      6.227   263.2310 1.1049e+02     0.0847     -0.543     -0.788    22.1707 0.0000e+00
     -0.554      0.014     8.6045     99.889      6.582   6.352816    -0.1738      6.243   277.1477 1.1540e+02    -0.1169     -0.544     -0.789    22.1652 0.0000e+00
     -0.554      0.031     8.5075     99.864     16.680  16.237157    -0.1740      6.379   277.9608 1.2006e+02    -0.1660     -0.543     -0.788    22.1738 0.0000e+00
     -0.550      0.057     8.4239     99.799     28.138  27.552572    -0.1389      6.777   259.8128 1.2451e+02     0.0400     -0.542     -0.786    22.1593 0.0000e+00
     -0.539      0.092     8.3640     99.712     34.343  33.801737     0.2420      7.353   232.8977 1.3114e+02     2.1900     -0.533     -0.774    22.2092 0.0000e+00
     -0.515      0.133     8.3244     99.680     35.821  35.412288     0.9300      7.866   213.8342 1.4432e+02     6.1770     -0.511     -0.742    22.7125 0.0000e+00
     -0.474      0.170     8.2981     99.733     35.861  35.593278     1.3048      8.206   195.7172 1.6152e+02     8.3897     -0.471     -0.683    23.4293 0.0000e+00
     -0.418      0.196     8.2861     99.912     35.751  35.609144     1.3554      8.406   178.7844 1.7259e+02     8.6191     -0.414     -0.601    23.9080 0.0000e+00
     -0.351      0.209     8.2834    100.129     35.650  35.604304     1.4684      8.521   169.9939 1.7790e+02     8.5536     -0.345     -0.500    24.2178 0.0000e+00
     -0.281      0.212     8.2819    100.296     35.510  35.534902     2.6068      8.594   167.2109 1.8268e+02     7.4747     -0.270     -0.391    24.4297 0.0000e+00
     -0.225      0.207     8.2898    100.533     35.326  35.405327     4.6893      8.640   167.8499 1.8668e+02     5.5238     -0.212     -0.308    24.6238 0.0000e+00
     -0.187      0.193     8.3117    100.883     35.196  35.308126     5.8316      8.663   168.4283 1.8632e+02     4.4964     -0.184     -0.268    24.8144 0.0000e+00
     -0.147      0.177     8.3465    101.309     35.136  35.248988     5.9593      8.671   167.6643 1.7738e+02     4.4222     -0.152     -0.221    24.9409 0.0000e+00
     -0.097      0.159     8.3914    101.783     35.112  35.198458     6.0130      8.671   166.0124 1.6468e+02     4.3512     -0.092     -0.133    25.0365 0.0000e+00
     -0.051      0.139     8.4382    102.245     35.095  35.141782     6.0582      8.670   165.5775 1.5463e+02     4.2192     -0.046     -0.067    25.1177 0.0000e+00
     -0.014      0.112     8.4795    102.647     35.062  35.071814     6.0737      8.673   165.6752 1.3867e+02     4.1374     -0.014     -0.023    25.1684 0.0000e+00
      0.017      0.077     8.5133    102.983     35.068  35.051154     6.0717      8.681   165.6451 1.1695e+02     4.1557      0.022      0.032    25.1702 0.0000e+00
      0.036      0.037     8.5362    103.206     35.183  35.146021     6.0617      8.693   166.6765 1.0519e+02     4.1352      0.043      0.062    25.1242 0.0000e+00
      0.037      0.004     8.5434    103.284     35.434  35.393052     6.0448      8.708   167.9078 1.0694e+02     4.0430      0.041      0.059    25.0571 0.0000e+00
      0.021     -0.016     8.5536    103.472     35.895  35.878267     6.0327      8.721   168.4865 1.1614e+02     3.9860      0.025      0.036    25.0013 0.0000e+00
     -0.002     -0.025     8.5866    103.978     36.415  36.439157     6.0161      8.727   168.7700 1.2477e+02     3.9651     -0.005     -0.007    24.9687 0.0000e+00
     -0.017     -0.023     8.6195    104.478     36.649  36.711800     5.9918      8.726   168.6675 1.2842e+02     3.9738     -0.023     -0.032    24.9349 0.0000e+00
     -0.020     -0.016     8.6232    104.605     36.604  36.697395     5.9692      8.725   168.2800 1.2894e+02     3.9690     -0.022     -0.031    24.9182 0.0000e+00
     -0.013     -0.007     8.6000    104.389     36.464  36.582662     5.9532      8.731   168.3008 1.2820e+02     3.9371     -0.014     -0.021    24.9619 0.0000e+00
     -0.004     -0.002     8.5542    103.881     36.332  36.468055     5.9454      8.746   169.0049 1.2753e+02     3.9541     -0.001     -0.002    25.0299 0.0000e+00
     -0.001     -0.001     8.4862    103.089     36.306  36.455155     5.9213      8.763   169.6519 1.2745e+02     3.9916      0.004      0.005    25.0826 0.0000e+00
     -0.007     -0.002     8.4072    102.150     36.460  36.617294     5.8729      8.777   170.2719 1.2808e+02     3.9944     -0.006     -0.009    25.1247 0.0000e+00
     -0.016     -0.004     8.3309    101.235     36.741  36.903882     5.8477      8.789   171.0817 1.2901e+02     3.9577     -0.018     -0.025    25.1598 0.0000e+00
     -0.020     -0.004     8.2754    100.567     36.958  37.125162     5.8461      8.800   171.2685 1.2980e+02     3.9140     -0.022     -0.032    25.1846 0.0000e+00
     -0.018     -0.002     8.2515    100.279     37.028  37.196427     5.8353      8.810   170.7240 1.3020e+02     3.9237     -0.019     -0.028    25.2008 0.0000e+00
     -0.013      0.002     8.2461    100.211     37.027  37.193806     5.8647      8.817   170.3488 1.3014e+02     4.0142     -0.011     -0.016    25.2119 0.0000e+00
     -0.009      0.005     8.2391    100.123     37.054  37.220522     5.9532      8.822   170.7767 1.2995e+02     4.1527     -0.008     -0.011    25.2171 0.0000e+00
     -0.009      0.006     8.2240     99.943     37.224  37.392393     6.0130      8.827   171.3375 1.2988e+02     4.2254     -0.009     -0.013    25.2201 0.0000e+00
     -0.009      0.007     8.2001     99.658     37.512  37.683698     6.0183      8.830   171.4502 1.2985e+02     4.1907     -0.009     -0.013    25.2221 0.0000e+00
     -0.009      0.007     8.1630     99.208     37.585  37.756868     5.9802      8.829   171.2794 1.2969e+02     4.0998     -0.010     -0.015    25.2194 0.0000e+00
     -0.008      0.002     8.1116     98.571     37.285  37.451222     5.9198      8.823   170.6488 1.2929e+02     4.0113     -0.009     -0.013    25.2164 0.0000e+00
     -0.005     -0.011     8.0448     97.737     37.325  37.482159     5.8948      8.822   170.0205 1.2830e+02     3.9752     -0.005     -0.008    25.2204 0.0000e+00
      0.001     -0.027     7.9678     96.783     38.043  38.194383     5.8890      8.832   170.1354 1.2702e+02     3.9687      0.002      0.002    25.2238 0.0000e+00
      0.001     -0.041     7.8944     95.875     38.483  38.629770     5.8229      8.845   170.6615 1.2824e+02     3.9629      0.009      0.013    25.2275 0.0000e+00
     -0.017     -0.049     7.8341     95.129     38.097  38.235833     5.7108      8.850   170.9613 1.3471e+02     3.9665     -0.007     -0.011    25.2189 0.0000e+00
     -0.052     -0.049     7.7884     94.567     37.427  37.560746     5.6550      8.852   171.0924 1.4233e+02     3.9819     -0.055     -0.080    25.2015 0.0000e+00
     -0.080     -0.044     7.7570     94.158     37.081  37.201413     5.6535      8.854   171.3012 1.4490e+02     3.9969     -0.089     -0.130    25.1943 0.0000e+00
     -0.086     -0.032     7.7389     93.852     37.111  37.194615     5.6843      8.856   171.4204 1.4380e+02     4.0562     -0.089     -0.129    25.1845 0.0000e+00
     -0.079     -0.016     7.7287     93.607     37.320  37.351430     5.7427      8.861   171.5009 1.4261e+02     4.1497     -0.078     -0.113    25.1727 0.0000e+00
     -0.072      0.000     7.7195     93.402     37.519  37.509195     5.7707      8.866   171.7584 1.4206e+02     4.1807     -0.069     -0.100    25.1742 0.0000e+00
     -0.071      0.010     7.7015     93.137     37.544  37.513910     5.7648      8.870   171.9537 1.4150e+02     4.1864     -0.067     -0.098    25.1740 0.0000e+00
     -0.072      0.013     7.6649     92.672     37.511  37.471931     5.7635      8.872   171.9687 1.4083e+02     4.2187     -0.070     -0.103    25.1176 0.0000e+00
     -0.071      0.012     7.6084     91.976     37.555  37.509840     5.7648      8.872   172.0256 1.4068e+02     4.2361     -0.072     -0.104    25.0263 0.0000e+00
     -0.066      0.010     7.5382     91.122     37.575  37.527563     5.7613      8.872   172.1255 1.4063e+02     4.2437     -0.065     -0.095    24.9687 0.0000e+00
     -0.059      0.009     7.4617     90.196     37.544  37.495639     5.7586      8.874   172.4020 1.4036e+02     4.2502     -0.057     -0.083    24.9508 0.0000e+00
     -0.055      0.010     7.3817     89.227     37.491  37.441487     5.7592      8.875   172.8732 1.3989e+02     4.2229     -0.053     -0.077    24.9407 0.0000e+00
     -0.055      0.012     7.2991     88.224     37.432  37.381031     5.7690      8.870   173.1776 1.3919e+02     4.2494     -0.052     -0.076    24.9314 0.0000e+00
     -0.058      0.012     7.2178     87.237     37.454  37.399932     5.7757      8.864   173.3287 1.3814e+02     4.3564     -0.058     -0.083    24.9304 0.0000e+00
