* Sea-Bird SBE19plus  Data File:
* FileName = C:\DATA\073018_fcr50_0007.hex
* Software version 2.6.3.104 SB_Terminal.dll
* Temperature SN = 7809
* Conductivity SN = 7809
* System UpLoad Time = Jul 30 2018 16:27:10
* <ApplicationData>
* <Seaterm232>
* <SoftwareVersion>2.6.3.104</SoftwareVersion>
* <BuildDate>30-Jun-2017</BuildDate>
* </Seaterm232>
* </ApplicationData>
* cast   7 30 Jul 2018 14:35:09 samples 3053 to 3708, avg = 1, stop = mag switch
# nquan = 15
# nvalues = 478                         
# units = specified
# name 0 = depFM: Depth [fresh water, m]
# name 1 = dz/dtM: Descent Rate [m/s]
# name 2 = sbeox0Mg/L: Oxygen, SBE 43 [mg/l]
# name 3 = sbeox0PS: Oxygen, SBE 43 [% saturation]
# name 4 = specc: Specific Conductance [uS/cm]
# name 5 = c0uS/cm: Conductivity [uS/cm]
# name 6 = flECO-AFL: Fluorescence, WET Labs ECO-AFL/FL [mg/m^3]
# name 7 = ph: pH
# name 8 = orp: Oxidation Reduction Potential [mV]
# name 9 = par/sat/log: PAR/Logarithmic, Satlantic
# name 10 = turbWETntu0: Turbidity, WET Labs ECO [NTU]
# name 11 = prdM: Pressure, Strain Gauge [db]
# name 12 = prdE: Pressure, Strain Gauge [psi]
# name 13 = tv290C: Temperature [ITS-90, deg C]
# name 14 = flag:  0.000e+00
# span 0 =     -0.555,      9.452       
# span 1 =     -0.053,      0.230       
# span 2 =     0.1595,     8.8422       
# span 3 =      1.546,    106.557       
# span 4 =      0.648,     50.152       
# span 5 =   0.598511,  38.118924       
# span 6 =    -0.1929,     6.0807       
# span 7 =      6.146,      8.894       
# span 8 =   -26.1362,   301.7383       
# span 9 = 1.2549e-01, 1.6615e+02       
# span 10 =    -0.2658,    29.2701      
# span 11 =     -0.544,      9.270      
# span 12 =     -0.789,     13.446      
# span 13 =    11.9068,    25.6858      
# span 14 = 0.0000e+00, 0.0000e+00      
# interval = seconds: 0.25
# start_time = Jul 30 2018 14:35:09 [Instrument's time stamp, header]
# bad_flag = -9.990e-29
# <Sensors count="9" >
#   <sensor Channel="1" >
#     <!-- Count, Temperature -->
#     <TemperatureSensor SensorID="58" >
#       <SerialNumber>7809</SerialNumber>
#       <CalibrationDate>09-Mar-18</CalibrationDate>
#       <A0>1.21093245e-003</A0>
#       <A1>2.84356597e-004</A1>
#       <A2>-1.94507398e-006</A2>
#       <A3>2.12806664e-007</A3>
#       <Slope>1.00000000</Slope>
#       <Offset>0.0000</Offset>
#     </TemperatureSensor>
#   </sensor>
#   <sensor Channel="2" >
#     <!-- Frequency 0, Conductivity -->
#     <ConductivitySensor SensorID="3" >
#       <SerialNumber>7809</SerialNumber>
#       <CalibrationDate>09-Mar-18</CalibrationDate>
#       <UseG_J>1</UseG_J>
#       <!-- Cell const and series R are applicable only for wide range sensors. -->
#       <SeriesR>0.0000</SeriesR>
#       <CellConst>2000.0000</CellConst>
#       <ConductivityType>0</ConductivityType>
#       <Coefficients equation="0" >
#         <A>0.00000000e+000</A>
#         <B>0.00000000e+000</B>
#         <C>0.00000000e+000</C>
#         <D>0.00000000e+000</D>
#         <M>0.0</M>
#         <CPcor>-9.57000000e-008</CPcor>
#       </Coefficients>
#       <Coefficients equation="1" >
#         <G>-1.00672082e+000</G>
#         <H>1.26906489e-001</H>
#         <I>-1.40584351e-004</I>
#         <J>2.47837121e-005</J>
#         <CPcor>-9.57000000e-008</CPcor>
#         <CTcor>3.2500e-006</CTcor>
#         <!-- WBOTC not applicable unless ConductivityType = 1. -->
#         <WBOTC>0.00000000e+000</WBOTC>
#       </Coefficients>
#       <Slope>1.00000000</Slope>
#       <Offset>0.00000</Offset>
#     </ConductivitySensor>
#   </sensor>
#   <sensor Channel="3" >
#     <!-- Count, Pressure, Strain Gauge -->
#     <PressureSensor SensorID="46" >
#       <SerialNumber>7809</SerialNumber>
#       <CalibrationDate>07-Mar-18</CalibrationDate>
#       <PA0>-4.08176359e-002</PA0>
#       <PA1>4.85188419e-004</PA1>
#       <PA2>-3.51168169e-012</PA2>
#       <PTEMPA0>-5.37806900e+001</PTEMPA0>
#       <PTEMPA1>5.36620721e+001</PTEMPA1>
#       <PTEMPA2>4.87214332e-002</PTEMPA2>
#       <PTCA0>5.25213435e+005</PTCA0>
#       <PTCA1>1.79532409e+000</PTCA1>
#       <PTCA2>-2.84353509e-001</PTCA2>
#       <PTCB0>2.51668750e+001</PTCB0>
#       <PTCB1>3.75000000e-004</PTCB1>
#       <PTCB2>0.00000000e+000</PTCB2>
#       <Offset>0.000000</Offset>
#     </PressureSensor>
#   </sensor>
#   <sensor Channel="4" >
#     <!-- A/D voltage 0, pH -->
#     <pH_Sensor SensorID="43" >
#       <SerialNumber>0363</SerialNumber>
#       <CalibrationDate>16-Mar-18</CalibrationDate>
#       <Slope>4.6194</Slope>
#       <Offset>2.5947</Offset>
#     </pH_Sensor>
#   </sensor>
#   <sensor Channel="5" >
#     <!-- A/D voltage 1, Oxidation Reduction Potential -->
#     <OxidationReductionPotentialSensor SensorID="41" >
#       <SerialNumber>0363</SerialNumber>
#       <CalibrationDate>16-Mar-18</CalibrationDate>
#       <B>2.499480</B>
#       <M>-0.496195</M>
#       <Offset>0.0</Offset>
#     </OxidationReductionPotentialSensor>
#   </sensor>
#   <sensor Channel="6" >
#     <!-- A/D voltage 2, Oxygen, SBE 43 -->
#     <OxygenSensor SensorID="38" >
#       <SerialNumber>0434</SerialNumber>
#       <CalibrationDate>13-Mar-18</CalibrationDate>
#       <Use2007Equation>1</Use2007Equation>
#       <CalibrationCoefficients equation="0" >
#         <!-- Coefficients for Owens-Millard equation. -->
#         <Boc>0.0000</Boc>
#         <Soc>0.0000e+000</Soc>
#         <offset>0.0000</offset>
#         <Pcor>0.00e+000</Pcor>
#         <Tcor>0.0000</Tcor>
#         <Tau>0.0</Tau>
#       </CalibrationCoefficients>
#       <CalibrationCoefficients equation="1" >
#         <!-- Coefficients for Sea-Bird equation - SBE calibration in 2007 and later. -->
#         <Soc>4.5718e-001</Soc>
#         <offset>-0.6113</offset>
#         <A>-4.0649e-003</A>
#         <B> 2.0945e-004</B>
#         <C>-3.3182e-006</C>
#         <D0> 2.5826e+000</D0>
#         <D1> 1.92634e-004</D1>
#         <D2>-4.64803e-002</D2>
#         <E> 3.6000e-002</E>
#         <Tau20> 1.2200</Tau20>
#         <H1>-3.3000e-002</H1>
#         <H2> 5.0000e+003</H2>
#         <H3> 1.4500e+003</H3>
#       </CalibrationCoefficients>
#     </OxygenSensor>
#   </sensor>
#   <sensor Channel="7" >
#     <!-- A/D voltage 3, PAR/Logarithmic, Satlantic -->
#     <PARLog_SatlanticSensor SensorID="76" >
#       <SerialNumber>1122</SerialNumber>
#       <CalibrationDate>22-Jun-2017</CalibrationDate>
#       <a0>9.6090e-001</a0>
#       <a1>8.0780e-001</a1>
#       <Im>1.3589e+000</Im>
#       <Multiplier>1.0000e+000</Multiplier>
#     </PARLog_SatlanticSensor>
#   </sensor>
#   <sensor Channel="8" >
#     <!-- A/D voltage 4, Fluorometer, WET Labs ECO-AFL/FL -->
#     <FluoroWetlabECO_AFL_FL_Sensor SensorID="20" >
#       <SerialNumber>FLNTURT-2496</SerialNumber>
#       <CalibrationDate>25-Jan-2017</CalibrationDate>
#       <ScaleFactor>5.30000000e+001</ScaleFactor>
#       <!-- Dark output -->
#       <Vblank>0.0560</Vblank>
#     </FluoroWetlabECO_AFL_FL_Sensor>
#   </sensor>
#   <sensor Channel="9" >
#     <!-- A/D voltage 5, Turbidity Meter, WET Labs, ECO-NTU -->
#     <TurbidityMeter SensorID="67" >
#       <SerialNumber>FLNTURT-2496</SerialNumber>
#       <CalibrationDate>25-Jan-2017</CalibrationDate>
#       <ScaleFactor>176.000000</ScaleFactor>
#       <!-- Dark output -->
#       <DarkVoltage>0.072000</DarkVoltage>
#     </TurbidityMeter>
#   </sensor>
# </Sensors>
# datcnv_date = Jul 30 2018 16:35:51, 7.26.7.114 [datcnv_vars = 14]
# datcnv_in = C:\DATA\073018_fcr50.hex C:\DATA\SBE19plusV2_7809.xmlcon
# datcnv_skipover = 0
# datcnv_ox_hysteresis_correction = yes
# datcnv_ox_tau_correction = yes
# filter_date = Jul 30 2018 16:36:33, 7.26.7.114
# filter_in = C:\DATA\073018_fcr50.cnv
# filter_low_pass_tc_A = 0.030
# filter_low_pass_tc_B = 0.150
# filter_low_pass_A_vars = prdM prdE tv290C
# filter_low_pass_B_vars = depFM dz/dtM sbeox0Mg/L sbeox0PS specc c0uS/cm flECO-AFL ph orp par/sat/log turbWETntu0
# alignctd_date = Jul 30 2018 16:36:57, 7.26.7.114
# alignctd_in = C:\DATA\073018_fcr50.cnv
# alignctd_adv = dz/dtM 1.000, sbeox0Mg/L 1.000, sbeox0PS 1.000, specc 1.000, c0uS/cm 1.000, flECO-AFL 1.000, ph 1.000, orp 1.000, turbWETntu0 1.000                                                                                 
# file_type = ascii
*END*
     -0.554 -8.630e-20     8.8411     99.515      0.673   0.620899    -0.1818      6.373   -19.5555 1.3891e+02     0.0021     -0.543     -0.788    21.1730 0.0000e+00
     -0.554 -7.845e-21     8.8418     99.524      0.672   0.619869    -0.1833      6.374   -22.4928 1.3507e+02     0.0080     -0.543     -0.787    21.1732 0.0000e+00
     -0.554 -7.130e-22     8.8417     99.523      0.658   0.607529    -0.1789      6.374   -24.0815 1.2945e+02     0.0199     -0.544     -0.788    21.1735 0.0000e+00
     -0.554 -6.485e-23     8.8411     99.517      0.648   0.598511    -0.1744      6.373   -23.5357 1.2331e+02    -0.0058     -0.543     -0.787    21.1736 0.0000e+00
     -0.554 -5.895e-24     8.8416     99.522      0.691   0.637658    -0.1748      6.372   -23.2937 1.1811e+02    -0.0287     -0.544     -0.788    21.1735 0.0000e+00
     -0.554 -5.324e-25     8.8422     99.528      0.758   0.700377    -0.1832      6.373   -24.7683 1.1502e+02    -0.0137     -0.544     -0.788    21.1739 0.0000e+00
     -0.554 -9.532e-27     8.8417     99.523      0.782   0.722721    -0.1842      6.374   -26.1362 1.0869e+02    -0.0072     -0.544     -0.789    21.1740 0.0000e+00
     -0.554 4.2648e-25     8.8405     99.509      0.846   0.780989    -0.1779      6.374   -24.6042 9.8845e+01    -0.0716     -0.544     -0.788    21.1741 0.0000e+00
     -0.554 4.7396e-24     8.8385     99.488      1.041   0.960999    -0.1803      6.374   -22.1618 9.3512e+01    -0.1823     -0.544     -0.789    21.1742 0.0000e+00
     -0.554 5.2140e-23     8.8376     99.478      1.217   1.123645    -0.1773      6.374   -20.0080 9.1867e+01    -0.2166     -0.544     -0.788    21.1741 0.0000e+00
     -0.554 5.7354e-22     8.8378     99.481      1.258   1.162197    -0.1692      6.374   -16.8034 9.0435e+01    -0.1815     -0.543     -0.787    21.1744 0.0000e+00
     -0.554 6.3089e-21     8.8377     99.480      1.270   1.173481    -0.1740      6.373   -13.1848 8.8481e+01    -0.1235     -0.543     -0.788    21.1746 0.0000e+00
     -0.554 6.9398e-20     8.8380     99.483      1.365   1.260081    -0.1807      6.372    -7.4883 8.7404e+01    -0.0341     -0.543     -0.788    21.1747 0.0000e+00
     -0.554 7.6338e-19     8.8376     99.480      1.500   1.384880    -0.1759      6.371     2.9443 9.0082e+01     0.0143     -0.543     -0.787    21.1749 0.0000e+00
     -0.554 8.3971e-18     8.8375     99.479      1.531   1.414134    -0.1715      6.370    16.1603 9.2224e+01     0.0037     -0.543     -0.788    21.1750 0.0000e+00
     -0.554 9.2369e-17     8.8378     99.483      1.473   1.360119    -0.1739      6.369    27.2046 9.0537e+01    -0.0699     -0.544     -0.788    21.1752 0.0000e+00
     -0.555 1.0161e-15     8.8374     99.478      1.479   1.365934    -0.1764      6.369    32.8887 8.9412e+01    -0.1735     -0.544     -0.789    21.1754 0.0000e+00
     -0.555 1.1177e-14     8.8383     99.488      1.607   1.484448    -0.1743      6.372    34.0372 8.9033e+01    -0.2120     -0.544     -0.789    21.1756 0.0000e+00
     -0.554 1.2294e-13     8.8395     99.503      1.788   1.651596    -0.1759      6.375    31.2824 8.4620e+01    -0.2297     -0.543     -0.788    21.1758 0.0000e+00
     -0.554 1.3524e-12     8.8396     99.505      1.950   1.801530    -0.1873      6.378    27.2861 7.2604e+01    -0.2658     -0.543     -0.787    21.1758 0.0000e+00
     -0.554 1.4876e-11     8.8397     99.506      2.059   1.902146    -0.1929      6.378    27.5326 5.5510e+01    -0.2514     -0.544     -0.788    21.1759 0.0000e+00
     -0.554 1.6364e-10     8.8400     99.509      2.075   1.916897    -0.1880      6.378    30.2188 4.3050e+01    -0.2094     -0.544     -0.788    21.1761 0.0000e+00
     -0.554 1.8000e-09     8.8403     99.512      2.006   1.853052    -0.1745      6.379    30.8555 3.6042e+01    -0.2155     -0.544     -0.788    21.1763 0.0000e+00
     -0.554 1.9800e-08     8.8403     99.512      1.910   1.764357    -0.1667      6.380    32.9079 2.5575e+01    -0.2332     -0.544     -0.788    21.1764 0.0000e+00
     -0.554 2.1780e-07     8.8389     99.497      1.875   1.732313    -0.1757      6.382    67.1655 1.2861e+01    -0.2402     -0.544     -0.788    21.1768 0.0000e+00
     -0.554 4.0775e-07     8.8369     99.474      2.067   1.909527    -0.1742      6.387   145.9892 9.5142e+00    -0.2399     -0.544     -0.789    21.1768 0.0000e+00
     -0.554 3.2843e-07     8.8369     99.473      2.445   2.258208    -0.1663      6.393   212.7242 2.7199e+01    -0.2292     -0.542     -0.787    21.1770 0.0000e+00
     -0.554      0.000     8.8386     99.491      2.733   2.523676    -0.1724      6.394   233.3175 5.6035e+01    -0.2325     -0.543     -0.788    21.1766 0.0000e+00
     -0.554      0.000     8.8397     99.503      2.797   2.582592    -0.1746      6.391   233.1415 7.1576e+01    -0.2184     -0.544     -0.789    21.1773 0.0000e+00
     -0.554      0.000     8.8399     99.505      2.667   2.463210    -0.1746      6.389   231.2459 7.5668e+01    -0.1810     -0.544     -0.788    21.1758 0.0000e+00
     -0.554      0.002     8.8396     99.507      2.610   2.412016    -0.1817      6.388   234.0582 7.8038e+01    -0.1771     -0.543     -0.787    21.1774 0.0000e+00
     -0.554      0.008     8.8345     99.512      3.899   3.612474    -0.1782      6.398   237.5481 7.9809e+01    -0.2023     -0.543     -0.788    21.1735 0.0000e+00
     -0.554      0.023     8.7940     99.519      9.134   8.542461    -0.1680      6.538   253.5659 8.5578e+01    -0.2113     -0.544     -0.789    21.1784 0.0000e+00
     -0.554      0.044     8.6865     99.531     16.919  16.027031    -0.1686      6.899   287.6565 9.5852e+01    -0.1934     -0.543     -0.787    21.1694 0.0000e+00
     -0.549      0.066     8.5452     99.532     24.792  23.871871    -0.1675      7.336   300.8456 1.0571e+02    -0.1699     -0.543     -0.788    21.1834 0.0000e+00
     -0.529      0.087     8.4328     99.543     32.215  31.413317    -0.1640      7.691   293.6111 1.1362e+02    -0.1093     -0.528     -0.766    21.1604 0.0000e+00
     -0.489      0.103     8.3632     99.570     35.764  35.142102    -0.1264      7.960   288.3753 1.1882e+02     0.6608     -0.479     -0.696    21.2514 0.0000e+00
     -0.447      0.110     8.3181     99.590     35.910  35.492959    -0.0348      8.174   284.1728 1.2047e+02     2.0918     -0.432     -0.627    22.0068 0.0000e+00
     -0.417      0.107     8.2871     99.617     35.790  35.528757     0.0157      8.344   281.0870 1.2457e+02     2.9101     -0.409     -0.594    23.0583 0.0000e+00
     -0.392      0.095     8.2634     99.637     35.717  35.575142     0.0154      8.484   278.2542 1.3149e+02     3.5665     -0.386     -0.559    23.7541 0.0000e+00
     -0.369      0.080     8.2418     99.630     35.717  35.672852     0.1457      8.622   275.8191 1.3647e+02    10.1507     -0.358     -0.519    24.1617 0.0000e+00
     -0.354      0.070     8.2234     99.617     35.719  35.757476     0.8831      8.753   273.4986 1.4375e+02    22.2152     -0.344     -0.499    24.4398 0.0000e+00
     -0.344      0.066     8.2099     99.611     35.737  35.836184     2.0297      8.845   272.4813 1.5457e+02    28.7689     -0.339     -0.491    24.6474 0.0000e+00
     -0.332      0.070     8.1990     99.610     35.775  35.925851     2.6142      8.880   270.8326 1.6249e+02    29.2701     -0.329     -0.477    24.8015 0.0000e+00
     -0.316      0.081     8.1891     99.635     35.745  35.952384     2.7021      8.869   252.6173 1.6615e+02    28.7329     -0.311     -0.450    24.9384 0.0000e+00
     -0.296      0.097     8.1813     99.697     35.636  35.902986     3.2116      8.841   220.4487 1.6584e+02    22.4570     -0.293     -0.425    25.0611 0.0000e+00
     -0.268      0.115     8.1814     99.838     35.516  35.836858     4.1517      8.825   202.2950 1.5785e+02    10.9153     -0.265     -0.385    25.1393 0.0000e+00
     -0.235      0.134     8.1959    100.113     35.430  35.788142     4.6675      8.820   199.0057 1.4356e+02     4.6022     -0.231     -0.336    25.1969 0.0000e+00
     -0.196      0.150     8.2254    100.523     35.319  35.695151     4.7160      8.812   197.7139 1.3282e+02     4.0189     -0.195     -0.283    25.2816 0.0000e+00
     -0.155      0.160     8.2692    101.095     35.150  35.538323     4.7470      8.800   197.3459 1.2889e+02     3.9845     -0.150     -0.218    25.3738 0.0000e+00
     -0.112      0.160     8.3222    101.793     35.011  35.416476     4.7945      8.791   197.1370 1.2189e+02     4.0036     -0.114     -0.166    25.4527 0.0000e+00
     -0.063      0.149     8.3919    102.673     35.012  35.428840     4.8119      8.789   196.8220 1.0164e+02     4.0055     -0.063     -0.092    25.5134 0.0000e+00
     -0.014      0.129     8.4989    103.958     35.151  35.560788     4.8194      8.792   196.8069 7.8649e+01     4.0068     -0.006     -0.009    25.5288 0.0000e+00
      0.020      0.103     8.6218    105.412     35.285  35.677883     4.8300      8.796   196.8683 7.0321e+01     3.9286      0.026      0.037    25.5400 0.0000e+00
      0.038      0.071     8.7013    106.361     35.317  35.701223     4.8300      8.800   196.6186 7.1559e+01     3.8226      0.041      0.059    25.5773 0.0000e+00
      0.045      0.031     8.7168    106.557     35.329  35.715933     4.8374      8.804   196.1968 7.1316e+01     3.8232      0.045      0.065    25.6022 0.0000e+00
      0.050     -0.009     8.6974    106.337     35.399  35.792228     4.8467      8.809   195.8988 6.9806e+01     3.8446      0.048      0.071    25.5822 0.0000e+00
      0.051     -0.039     8.6599    105.887     35.464  35.861444     4.8128      8.817   195.7680 7.2415e+01     3.8076      0.057      0.082    25.5432 0.0000e+00
      0.035     -0.053     8.5942    105.090     35.391  35.790552     4.7405      8.822   195.9060 8.2970e+01     3.7415      0.043      0.062    25.5299 0.0000e+00
      0.000     -0.053     8.5073    104.036     35.170  35.570293     4.7076      8.822   196.1041 9.6137e+01     3.7166     -0.000      0.000    25.5409 0.0000e+00
     -0.035     -0.043     8.4167    102.921     35.026  35.421578     4.7182      8.822   196.1846 1.0048e+02     3.7513     -0.043     -0.062    25.5524 0.0000e+00
     -0.048     -0.028     8.3352    101.876     35.076  35.453441     4.7496      8.827   196.1916 9.5297e+01     3.7946     -0.058     -0.084    25.5556 0.0000e+00
     -0.038     -0.007     8.2689    101.001     35.220  35.574396     4.8026      8.835   196.1017 8.8208e+01     3.8127     -0.039     -0.057    25.5549 0.0000e+00
     -0.022      0.013     8.2079    100.219     35.336  35.677101     4.8254      8.844   196.0448 8.2523e+01     3.7874     -0.016     -0.025    25.5639 0.0000e+00
     -0.012      0.027     8.1368     99.349     35.338  35.678870     4.8143      8.853   196.1914 7.9484e+01     3.7638     -0.010     -0.014    25.5707 0.0000e+00
     -0.009      0.031     8.0523     98.328     35.251  35.595779     4.8152      8.859   196.4117 7.9613e+01     3.7712     -0.009     -0.013    25.5368 0.0000e+00
     -0.005      0.027     7.9582     97.185     35.215  35.561764     4.8180      8.862   196.5576 8.0025e+01     3.8155     -0.006     -0.009    25.4897 0.0000e+00
      0.003      0.021     7.8501     95.876     35.359  35.712250     4.8015      8.864   196.7511 7.8393e+01     3.9022      0.002      0.003    25.4690 0.0000e+00
