* Sea-Bird SBE19plus  Data File:
* FileName = C:\DATA\073018_fcr50_0005.hex
* Software version 2.6.3.104 SB_Terminal.dll
* Temperature SN = 7809
* Conductivity SN = 7809
* System UpLoad Time = Jul 30 2018 16:26:39
* <ApplicationData>
* <Seaterm232>
* <SoftwareVersion>2.6.3.104</SoftwareVersion>
* <BuildDate>30-Jun-2017</BuildDate>
* </Seaterm232>
* </ApplicationData>
* cast   5 30 Jul 2018 13:58:14 samples 2292 to 2644, avg = 1, stop = mag switch
# nquan = 15
# nvalues = 232                         
# units = specified
# name 0 = depFM: Depth [fresh water, m]
# name 1 = dz/dtM: Descent Rate [m/s]
# name 2 = sbeox0Mg/L: Oxygen, SBE 43 [mg/l]
# name 3 = sbeox0PS: Oxygen, SBE 43 [% saturation]
# name 4 = specc: Specific Conductance [uS/cm]
# name 5 = c0uS/cm: Conductivity [uS/cm]
# name 6 = flECO-AFL: Fluorescence, WET Labs ECO-AFL/FL [mg/m^3]
# name 7 = ph: pH
# name 8 = orp: Oxidation Reduction Potential [mV]
# name 9 = par/sat/log: PAR/Logarithmic, Satlantic
# name 10 = turbWETntu0: Turbidity, WET Labs ECO [NTU]
# name 11 = prdM: Pressure, Strain Gauge [db]
# name 12 = prdE: Pressure, Strain Gauge [psi]
# name 13 = tv290C: Temperature [ITS-90, deg C]
# name 14 = flag:  0.000e+00
# span 0 =     -0.550,      5.344       
# span 1 =      0.000,      0.223       
# span 2 =    -1.1031,     8.4451       
# span 3 =    -10.521,     99.281       
# span 4 =      0.956,     59.295       
# span 5 =   0.902561,  48.934699       
# span 6 =    -0.1873,     6.7720       
# span 7 =      6.339,      8.865       
# span 8 =   174.6281,   399.2580       
# span 9 = 1.9800e-01, 2.1651e+02       
# span 10 =    -0.2376,    19.6937      
# span 11 =     -0.540,      5.241      
# span 12 =     -0.783,      7.601      
# span 13 =    11.8932,    25.5298      
# span 14 = 0.0000e+00, 0.0000e+00      
# interval = seconds: 0.25
# start_time = Jul 30 2018 13:58:14 [Instrument's time stamp, header]
# bad_flag = -9.990e-29
# <Sensors count="9" >
#   <sensor Channel="1" >
#     <!-- Count, Temperature -->
#     <TemperatureSensor SensorID="58" >
#       <SerialNumber>7809</SerialNumber>
#       <CalibrationDate>09-Mar-18</CalibrationDate>
#       <A0>1.21093245e-003</A0>
#       <A1>2.84356597e-004</A1>
#       <A2>-1.94507398e-006</A2>
#       <A3>2.12806664e-007</A3>
#       <Slope>1.00000000</Slope>
#       <Offset>0.0000</Offset>
#     </TemperatureSensor>
#   </sensor>
#   <sensor Channel="2" >
#     <!-- Frequency 0, Conductivity -->
#     <ConductivitySensor SensorID="3" >
#       <SerialNumber>7809</SerialNumber>
#       <CalibrationDate>09-Mar-18</CalibrationDate>
#       <UseG_J>1</UseG_J>
#       <!-- Cell const and series R are applicable only for wide range sensors. -->
#       <SeriesR>0.0000</SeriesR>
#       <CellConst>2000.0000</CellConst>
#       <ConductivityType>0</ConductivityType>
#       <Coefficients equation="0" >
#         <A>0.00000000e+000</A>
#         <B>0.00000000e+000</B>
#         <C>0.00000000e+000</C>
#         <D>0.00000000e+000</D>
#         <M>0.0</M>
#         <CPcor>-9.57000000e-008</CPcor>
#       </Coefficients>
#       <Coefficients equation="1" >
#         <G>-1.00672082e+000</G>
#         <H>1.26906489e-001</H>
#         <I>-1.40584351e-004</I>
#         <J>2.47837121e-005</J>
#         <CPcor>-9.57000000e-008</CPcor>
#         <CTcor>3.2500e-006</CTcor>
#         <!-- WBOTC not applicable unless ConductivityType = 1. -->
#         <WBOTC>0.00000000e+000</WBOTC>
#       </Coefficients>
#       <Slope>1.00000000</Slope>
#       <Offset>0.00000</Offset>
#     </ConductivitySensor>
#   </sensor>
#   <sensor Channel="3" >
#     <!-- Count, Pressure, Strain Gauge -->
#     <PressureSensor SensorID="46" >
#       <SerialNumber>7809</SerialNumber>
#       <CalibrationDate>07-Mar-18</CalibrationDate>
#       <PA0>-4.08176359e-002</PA0>
#       <PA1>4.85188419e-004</PA1>
#       <PA2>-3.51168169e-012</PA2>
#       <PTEMPA0>-5.37806900e+001</PTEMPA0>
#       <PTEMPA1>5.36620721e+001</PTEMPA1>
#       <PTEMPA2>4.87214332e-002</PTEMPA2>
#       <PTCA0>5.25213435e+005</PTCA0>
#       <PTCA1>1.79532409e+000</PTCA1>
#       <PTCA2>-2.84353509e-001</PTCA2>
#       <PTCB0>2.51668750e+001</PTCB0>
#       <PTCB1>3.75000000e-004</PTCB1>
#       <PTCB2>0.00000000e+000</PTCB2>
#       <Offset>0.000000</Offset>
#     </PressureSensor>
#   </sensor>
#   <sensor Channel="4" >
#     <!-- A/D voltage 0, pH -->
#     <pH_Sensor SensorID="43" >
#       <SerialNumber>0363</SerialNumber>
#       <CalibrationDate>16-Mar-18</CalibrationDate>
#       <Slope>4.6194</Slope>
#       <Offset>2.5947</Offset>
#     </pH_Sensor>
#   </sensor>
#   <sensor Channel="5" >
#     <!-- A/D voltage 1, Oxidation Reduction Potential -->
#     <OxidationReductionPotentialSensor SensorID="41" >
#       <SerialNumber>0363</SerialNumber>
#       <CalibrationDate>16-Mar-18</CalibrationDate>
#       <B>2.499480</B>
#       <M>-0.496195</M>
#       <Offset>0.0</Offset>
#     </OxidationReductionPotentialSensor>
#   </sensor>
#   <sensor Channel="6" >
#     <!-- A/D voltage 2, Oxygen, SBE 43 -->
#     <OxygenSensor SensorID="38" >
#       <SerialNumber>0434</SerialNumber>
#       <CalibrationDate>13-Mar-18</CalibrationDate>
#       <Use2007Equation>1</Use2007Equation>
#       <CalibrationCoefficients equation="0" >
#         <!-- Coefficients for Owens-Millard equation. -->
#         <Boc>0.0000</Boc>
#         <Soc>0.0000e+000</Soc>
#         <offset>0.0000</offset>
#         <Pcor>0.00e+000</Pcor>
#         <Tcor>0.0000</Tcor>
#         <Tau>0.0</Tau>
#       </CalibrationCoefficients>
#       <CalibrationCoefficients equation="1" >
#         <!-- Coefficients for Sea-Bird equation - SBE calibration in 2007 and later. -->
#         <Soc>4.5718e-001</Soc>
#         <offset>-0.6113</offset>
#         <A>-4.0649e-003</A>
#         <B> 2.0945e-004</B>
#         <C>-3.3182e-006</C>
#         <D0> 2.5826e+000</D0>
#         <D1> 1.92634e-004</D1>
#         <D2>-4.64803e-002</D2>
#         <E> 3.6000e-002</E>
#         <Tau20> 1.2200</Tau20>
#         <H1>-3.3000e-002</H1>
#         <H2> 5.0000e+003</H2>
#         <H3> 1.4500e+003</H3>
#       </CalibrationCoefficients>
#     </OxygenSensor>
#   </sensor>
#   <sensor Channel="7" >
#     <!-- A/D voltage 3, PAR/Logarithmic, Satlantic -->
#     <PARLog_SatlanticSensor SensorID="76" >
#       <SerialNumber>1122</SerialNumber>
#       <CalibrationDate>22-Jun-2017</CalibrationDate>
#       <a0>9.6090e-001</a0>
#       <a1>8.0780e-001</a1>
#       <Im>1.3589e+000</Im>
#       <Multiplier>1.0000e+000</Multiplier>
#     </PARLog_SatlanticSensor>
#   </sensor>
#   <sensor Channel="8" >
#     <!-- A/D voltage 4, Fluorometer, WET Labs ECO-AFL/FL -->
#     <FluoroWetlabECO_AFL_FL_Sensor SensorID="20" >
#       <SerialNumber>FLNTURT-2496</SerialNumber>
#       <CalibrationDate>25-Jan-2017</CalibrationDate>
#       <ScaleFactor>5.30000000e+001</ScaleFactor>
#       <!-- Dark output -->
#       <Vblank>0.0560</Vblank>
#     </FluoroWetlabECO_AFL_FL_Sensor>
#   </sensor>
#   <sensor Channel="9" >
#     <!-- A/D voltage 5, Turbidity Meter, WET Labs, ECO-NTU -->
#     <TurbidityMeter SensorID="67" >
#       <SerialNumber>FLNTURT-2496</SerialNumber>
#       <CalibrationDate>25-Jan-2017</CalibrationDate>
#       <ScaleFactor>176.000000</ScaleFactor>
#       <!-- Dark output -->
#       <DarkVoltage>0.072000</DarkVoltage>
#     </TurbidityMeter>
#   </sensor>
# </Sensors>
# datcnv_date = Jul 30 2018 16:35:50, 7.26.7.114 [datcnv_vars = 14]
# datcnv_in = C:\DATA\073018_fcr30.hex C:\DATA\SBE19plusV2_7809.xmlcon
# datcnv_skipover = 0
# datcnv_ox_hysteresis_correction = yes
# datcnv_ox_tau_correction = yes
# filter_date = Jul 30 2018 16:36:33, 7.26.7.114
# filter_in = C:\DATA\073018_fcr30.cnv
# filter_low_pass_tc_A = 0.030
# filter_low_pass_tc_B = 0.150
# filter_low_pass_A_vars = prdM prdE tv290C
# filter_low_pass_B_vars = depFM dz/dtM sbeox0Mg/L sbeox0PS specc c0uS/cm flECO-AFL ph orp par/sat/log turbWETntu0
# alignctd_date = Jul 30 2018 16:36:57, 7.26.7.114
# alignctd_in = C:\DATA\073018_fcr30.cnv
# alignctd_adv = dz/dtM 1.000, sbeox0Mg/L 1.000, sbeox0PS 1.000, specc 1.000, c0uS/cm 1.000, flECO-AFL 1.000, ph 1.000, orp 1.000, turbWETntu0 1.000                                                                                 
# file_type = ascii
*END*
     -0.550 9.9834e-13     8.4416     96.911      0.982   0.926884    -0.1640      6.344   372.8382 1.5419e+02     0.0305     -0.539     -0.782    22.1926 0.0000e+00
     -0.550 1.0982e-11     8.4440     96.938      0.968   0.914194    -0.1743      6.344   376.3427 1.4716e+02     0.0007     -0.539     -0.782    22.1926 0.0000e+00
     -0.550 1.2080e-10     8.4446     96.946      0.956   0.902561    -0.1793      6.343   378.6135 1.3442e+02    -0.0589     -0.539     -0.782    22.1927 0.0000e+00
     -0.550 1.3288e-09     8.4435     96.933      0.967   0.913063    -0.1698      6.340   383.0875 1.2924e+02    -0.1415     -0.539     -0.782    22.1927 0.0000e+00
     -0.550 1.4617e-08     8.4415     96.910      0.968   0.914346    -0.1693      6.339   385.6965 1.3764e+02    -0.2043     -0.539     -0.782    22.1926 0.0000e+00
     -0.550 1.6078e-07     8.4402     96.895      0.973   0.918075    -0.1732      6.341   381.5067 1.4822e+02    -0.2376     -0.539     -0.782    22.1930 0.0000e+00
     -0.550      0.000     8.4419     96.915      1.015   0.958152    -0.1711      6.346   376.6538 1.5407e+02    -0.1786     -0.540     -0.783    22.1925 0.0000e+00
     -0.550      0.000     8.4449     96.949      1.078   1.018434    -0.1806      6.351   378.7294 1.5315e+02     0.6927     -0.539     -0.782    22.1934 0.0000e+00
     -0.550      0.000     8.4451     96.954      1.207   1.139637    -0.1873      6.353   385.4379 1.4808e+02     2.2397     -0.540     -0.783    22.1920 0.0000e+00
     -0.550      0.002     8.4424     96.931      1.759   1.662648    -0.1783      6.345   399.2580 1.4306e+02     3.0536     -0.540     -0.783    22.1941 0.0000e+00
     -0.550      0.011     8.4339     96.908      6.212   5.883597    -0.1733      6.352   378.9106 1.3586e+02     3.0572     -0.540     -0.783    22.1908 0.0000e+00
     -0.550      0.030     8.3967     96.919     15.605  14.873062    -0.1723      6.505   300.9153 1.3166e+02     2.2218     -0.540     -0.783    22.1962 0.0000e+00
     -0.549      0.058     8.3098     96.933     25.557  24.639884    -0.1756      6.926   241.3319 1.3969e+02     0.6739     -0.539     -0.782    22.1880 0.0000e+00
     -0.542      0.090     8.2033     96.886     33.004  32.197006    -0.1765      7.500   226.0080 1.5588e+02    -0.1244     -0.539     -0.782    22.2029 0.0000e+00
     -0.516      0.119     8.1188     96.791     36.022  35.446942    -0.1370      7.993   236.8644 1.6995e+02     0.0164     -0.517     -0.749    22.1809 0.0000e+00
     -0.466      0.140     8.0579     96.668     36.080  35.739990     0.2378      8.313   260.9166 1.8149e+02     1.8875     -0.458     -0.665    22.3098 0.0000e+00
     -0.409      0.153     8.0044     96.483     35.959  35.804087     0.9082      8.492   267.9104 1.9822e+02     5.2865     -0.397     -0.576    22.9993 0.0000e+00
     -0.360      0.159     7.9518     96.236     35.840  35.841061     1.2688      8.591   251.5610 2.1617e+02     7.1467     -0.347     -0.503    23.7818 0.0000e+00
     -0.325      0.158     7.9032     95.967     35.676  35.806140     1.3539      8.644   226.7116 2.1651e+02     7.2595     -0.314     -0.455    24.2416 0.0000e+00
     -0.299      0.148     7.8645     95.731     35.476  35.699668     2.0564      8.656   212.9293 1.9973e+02     6.4366     -0.297     -0.432    24.5441 0.0000e+00
     -0.267      0.133     7.8414     95.592     35.290  35.570206     3.3578      8.649   209.7633 1.9138e+02     4.8873     -0.268     -0.389    24.7881 0.0000e+00
     -0.223      0.118     7.8345     95.587     35.138  35.447809     4.0760      8.641   207.7907 1.9730e+02     4.0302     -0.218     -0.316    25.0091 0.0000e+00
     -0.180      0.102     7.8410     95.709     35.036  35.363207     4.1412      8.632   206.3724 2.0203e+02     3.9464     -0.170     -0.246    25.1939 0.0000e+00
     -0.155      0.082     7.8563     95.915     34.975  35.309571     4.1460      8.627   205.1765 2.0227e+02     3.9661     -0.146     -0.212    25.3294 0.0000e+00
     -0.145      0.062     7.8784     96.170     34.979  35.307476     4.1806      8.633   203.3115 2.0337e+02     3.9939     -0.142     -0.205    25.4036 0.0000e+00
     -0.139      0.046     7.9042     96.438     35.028  35.337857     4.2380      8.655   201.1173 2.0627e+02     3.9779     -0.136     -0.198    25.4412 0.0000e+00
     -0.136      0.039     7.9269     96.669     35.004  35.295760     4.2696      8.685   199.7260 2.0904e+02     3.9552     -0.131     -0.191    25.4634 0.0000e+00
     -0.134      0.040     7.9455     96.877     34.959  35.243092     4.2782      8.708   198.9646 2.0600e+02     3.9329     -0.134     -0.194    25.4789 0.0000e+00
     -0.125      0.044     7.9624     97.088     35.113  35.399777     4.2868      8.721   198.4506 1.9238e+02     3.8910     -0.129     -0.187    25.4722 0.0000e+00
     -0.103      0.045     7.9785     97.294     35.750  36.046849     4.3098      8.727   198.0716 1.7685e+02     3.8456     -0.100     -0.146    25.4350 0.0000e+00
     -0.081      0.043     8.0015     97.578     36.790  37.095627     4.3350      8.736   197.7372 1.7035e+02     3.7806     -0.074     -0.109    25.4033 0.0000e+00
     -0.070      0.037     8.0494     98.161     37.541  37.852986     4.3434      8.751   197.4189 1.7050e+02     3.7467     -0.066     -0.095    25.3939 0.0000e+00
     -0.065      0.026     8.1113     98.922     37.709  38.025544     4.3477      8.765   197.0619 1.7140e+02     3.7708     -0.064     -0.092    25.4023 0.0000e+00
     -0.062      0.013     8.1392     99.281     37.652  37.974993     4.3493      8.775   196.6909 1.7129e+02     3.7981     -0.061     -0.089    25.4110 0.0000e+00
     -0.061      0.004     8.1172     99.035     37.546  37.877088     4.3360      8.782   196.2892 1.7056e+02     3.7708     -0.058     -0.085    25.4112 0.0000e+00
     -0.064      0.001     8.0555     98.302     37.330  37.667659     4.3249      8.788   196.0762 1.7015e+02     3.7155     -0.061     -0.090    25.4066 0.0000e+00
     -0.068      0.001     7.9557     97.103     37.069  37.412185     4.3430      8.793   196.1804 1.7032e+02     3.7094     -0.068     -0.098    25.4095 0.0000e+00
     -0.070      0.003     7.8269     95.550     36.854  37.202240     4.3801      8.798   196.2579 1.7038e+02     3.7269     -0.070     -0.101    25.4226 0.0000e+00
     -0.067      0.005     7.6853     93.839     36.680  37.035048     4.4064      8.802   196.2403 1.6992e+02     3.7443     -0.066     -0.097    25.4352 0.0000e+00
     -0.061      0.005     7.5433     92.118     36.556  36.915317     4.4130      8.804   196.4829 1.6967e+02     3.7671     -0.059     -0.086    25.4468 0.0000e+00
     -0.056      0.005     7.4088     90.478     36.475  36.834535     4.4323      8.805   196.6967 1.6976e+02     3.7582     -0.054     -0.079    25.4564 0.0000e+00
     -0.056      0.003     7.2944     89.079     36.399  36.757104     4.4831      8.806   196.5882 1.6979e+02     3.7283     -0.054     -0.078    25.4671 0.0000e+00
     -0.057      0.001     7.2085     88.024     36.323  36.677874     4.5219      8.810   196.3747 1.6984e+02     3.7420     -0.056     -0.081    25.4792 0.0000e+00
     -0.059      0.000     7.1457     87.258     36.284  36.638875     4.5339      8.816   196.0939 1.6979e+02     3.7706     -0.058     -0.084    25.4866 0.0000e+00
     -0.061      0.003     7.0999     86.705     36.309  36.666723     4.5369      8.821   195.9470 1.6963e+02     3.7693     -0.061     -0.088    25.4890 0.0000e+00
     -0.062      0.009     7.0694     86.341     36.335  36.696968     4.5301      8.823   196.0619 1.6950e+02     3.7576     -0.063     -0.091    25.4863 0.0000e+00
     -0.059      0.016     7.0517     86.131     36.322  36.686934     4.5256      8.822   197.3973 1.6909e+02     3.7511     -0.061     -0.087    25.4806 0.0000e+00
     -0.054      0.022     7.0426     86.022     36.307  36.672462     4.5282      8.820   211.1459 1.6815e+02     3.7510     -0.054     -0.078    25.4812 0.0000e+00
     -0.046      0.024     7.0394     85.982     36.284  36.649035     4.5246      8.820   236.6777 1.6670e+02     3.7564     -0.045     -0.067    25.4868 0.0000e+00
     -0.036      0.023     7.0375     85.958     36.230  36.594260     4.4901      8.825   251.7682 1.6410e+02     3.8159     -0.034     -0.051    25.4921 0.0000e+00
     -0.026      0.020     7.0394     85.983     36.154  36.518375     4.4338      8.833   254.6502 1.6069e+02     3.9219     -0.023     -0.033    25.4968 0.0000e+00
     -0.022      0.015     7.0564     86.193     36.066  36.430281     4.4039      8.842   255.8647 1.5821e+02     3.9699     -0.018     -0.027    25.4978 0.0000e+00
     -0.022      0.011     7.0947     86.663     35.991  36.354940     4.4041      8.849   255.6979 1.5723e+02     3.9694     -0.022     -0.031    25.4957 0.0000e+00
     -0.023      0.007     7.1490     87.328     35.941  36.306198     4.4087      8.852   245.1480 1.5716e+02     3.9768     -0.024     -0.035    25.4965 0.0000e+00
     -0.023      0.005     7.2130     88.116     35.918  36.285612     4.4055      8.851   224.8429 1.5755e+02     3.9670     -0.024     -0.034    25.4984 0.0000e+00
     -0.020      0.003     7.2868     89.022     35.927  36.296608     4.4016      8.849   220.5568 1.5790e+02     3.9431     -0.020     -0.029    25.4987 0.0000e+00
     -0.016      0.003     7.3732     90.081     35.941  36.312109     4.4073      8.850   236.4306 1.5780e+02     3.9624     -0.016     -0.023    25.4998 0.0000e+00
     -0.015      0.002     7.4709     91.276     35.974  36.345999     4.4287      8.857   249.5976 1.5715e+02     4.0176     -0.014     -0.020    25.5022 0.0000e+00
     -0.016      0.000     7.5643     92.416     36.016  36.388743     4.4582      8.864   252.9353 1.5615e+02     4.0306     -0.015     -0.021    25.5050 0.0000e+00
     -0.018      0.000     7.6388     93.325     36.012  36.384257     4.4698      8.865   243.4041 1.5560e+02     3.9962     -0.018     -0.026    25.5082 0.0000e+00
     -0.020      0.001     7.6937     93.994     35.985  36.355278     4.4670      8.860   222.8906 1.5575e+02     3.9683     -0.021     -0.030    25.5112 0.0000e+00
     -0.021      0.004     7.7354     94.501     35.986  36.355975     4.4802      8.850   209.0801 1.5602e+02     3.9678     -0.022     -0.032    25.5113 0.0000e+00
     -0.020      0.014     7.7779     95.021     36.023  36.392690     4.5100      8.842   204.7067 1.5624e+02     3.9600     -0.020     -0.030    25.5105 0.0000e+00
     -0.017      0.034     7.8308     95.665     36.049  36.418047     4.5236      8.837   201.9325 1.5638e+02     3.9347     -0.015     -0.022    25.5099 0.0000e+00
     -0.012      0.062     7.8896     96.377     35.979  36.344951     4.5249      8.837   200.1452 1.5490e+02     3.9064     -0.013     -0.018    25.5081 0.0000e+00
     -0.002      0.093     7.9453     97.052     35.782  36.144115     4.5265      8.840   199.3575 1.4115e+02     3.9540     -0.009     -0.012    25.5067 0.0000e+00
      0.023      0.120     7.9941     97.643     35.601  35.958973     4.5066      8.840   198.7754 1.1535e+02     4.1126      0.015      0.022    25.5080 0.0000e+00
      0.067      0.136     8.0383     98.166     35.534  35.885055     4.4776      8.835   198.1835 9.4727e+01     4.2070      0.059      0.086    25.5060 0.0000e+00
