* Sea-Bird SBE19plus  Data File:
* FileName = C:\DATA\073018_fcr50_0003.hex
* Software version 2.6.3.104 SB_Terminal.dll
* Temperature SN = 7809
* Conductivity SN = 7809
* System UpLoad Time = Jul 30 2018 16:26:15
* <ApplicationData>
* <Seaterm232>
* <SoftwareVersion>2.6.3.104</SoftwareVersion>
* <BuildDate>30-Jun-2017</BuildDate>
* </Seaterm232>
* </ApplicationData>
* cast   3 30 Jul 2018 13:18:21 samples 1577 to 1888, avg = 1, stop = mag switch
# nquan = 15
# nvalues = 247                         
# units = specified
# name 0 = depFM: Depth [fresh water, m]
# name 1 = dz/dtM: Descent Rate [m/s]
# name 2 = sbeox0Mg/L: Oxygen, SBE 43 [mg/l]
# name 3 = sbeox0PS: Oxygen, SBE 43 [% saturation]
# name 4 = specc: Specific Conductance [uS/cm]
# name 5 = c0uS/cm: Conductivity [uS/cm]
# name 6 = flECO-AFL: Fluorescence, WET Labs ECO-AFL/FL [mg/m^3]
# name 7 = ph: pH
# name 8 = orp: Oxidation Reduction Potential [mV]
# name 9 = par/sat/log: PAR/Logarithmic, Satlantic
# name 10 = turbWETntu0: Turbidity, WET Labs ECO [NTU]
# name 11 = prdM: Pressure, Strain Gauge [db]
# name 12 = prdE: Pressure, Strain Gauge [psi]
# name 13 = tv290C: Temperature [ITS-90, deg C]
# name 14 = flag:  0.000e+00
# span 0 =     -0.558,      2.562       
# span 1 =     -0.009,      0.195       
# span 2 =    -0.1276,    10.0459       
# span 3 =     -1.459,    121.976       
# span 4 =      1.920,    157.436       
# span 5 =   1.767810, 143.531693       
# span 6 =    -0.1944,     9.5202       
# span 7 =      6.084,      8.783       
# span 8 =  -447.8558,   235.2539       
# span 9 = 1.5881e+00, 1.2901e+02       
# span 10 =    -0.1964,    34.2777      
# span 11 =     -0.549,      2.515      
# span 12 =     -0.796,      3.648      
# span 13 =    20.5001,    25.2113      
# span 14 = 0.0000e+00, 0.0000e+00      
# interval = seconds: 0.25
# start_time = Jul 30 2018 13:18:21 [Instrument's time stamp, header]
# bad_flag = -9.990e-29
# <Sensors count="9" >
#   <sensor Channel="1" >
#     <!-- Count, Temperature -->
#     <TemperatureSensor SensorID="58" >
#       <SerialNumber>7809</SerialNumber>
#       <CalibrationDate>09-Mar-18</CalibrationDate>
#       <A0>1.21093245e-003</A0>
#       <A1>2.84356597e-004</A1>
#       <A2>-1.94507398e-006</A2>
#       <A3>2.12806664e-007</A3>
#       <Slope>1.00000000</Slope>
#       <Offset>0.0000</Offset>
#     </TemperatureSensor>
#   </sensor>
#   <sensor Channel="2" >
#     <!-- Frequency 0, Conductivity -->
#     <ConductivitySensor SensorID="3" >
#       <SerialNumber>7809</SerialNumber>
#       <CalibrationDate>09-Mar-18</CalibrationDate>
#       <UseG_J>1</UseG_J>
#       <!-- Cell const and series R are applicable only for wide range sensors. -->
#       <SeriesR>0.0000</SeriesR>
#       <CellConst>2000.0000</CellConst>
#       <ConductivityType>0</ConductivityType>
#       <Coefficients equation="0" >
#         <A>0.00000000e+000</A>
#         <B>0.00000000e+000</B>
#         <C>0.00000000e+000</C>
#         <D>0.00000000e+000</D>
#         <M>0.0</M>
#         <CPcor>-9.57000000e-008</CPcor>
#       </Coefficients>
#       <Coefficients equation="1" >
#         <G>-1.00672082e+000</G>
#         <H>1.26906489e-001</H>
#         <I>-1.40584351e-004</I>
#         <J>2.47837121e-005</J>
#         <CPcor>-9.57000000e-008</CPcor>
#         <CTcor>3.2500e-006</CTcor>
#         <!-- WBOTC not applicable unless ConductivityType = 1. -->
#         <WBOTC>0.00000000e+000</WBOTC>
#       </Coefficients>
#       <Slope>1.00000000</Slope>
#       <Offset>0.00000</Offset>
#     </ConductivitySensor>
#   </sensor>
#   <sensor Channel="3" >
#     <!-- Count, Pressure, Strain Gauge -->
#     <PressureSensor SensorID="46" >
#       <SerialNumber>7809</SerialNumber>
#       <CalibrationDate>07-Mar-18</CalibrationDate>
#       <PA0>-4.08176359e-002</PA0>
#       <PA1>4.85188419e-004</PA1>
#       <PA2>-3.51168169e-012</PA2>
#       <PTEMPA0>-5.37806900e+001</PTEMPA0>
#       <PTEMPA1>5.36620721e+001</PTEMPA1>
#       <PTEMPA2>4.87214332e-002</PTEMPA2>
#       <PTCA0>5.25213435e+005</PTCA0>
#       <PTCA1>1.79532409e+000</PTCA1>
#       <PTCA2>-2.84353509e-001</PTCA2>
#       <PTCB0>2.51668750e+001</PTCB0>
#       <PTCB1>3.75000000e-004</PTCB1>
#       <PTCB2>0.00000000e+000</PTCB2>
#       <Offset>0.000000</Offset>
#     </PressureSensor>
#   </sensor>
#   <sensor Channel="4" >
#     <!-- A/D voltage 0, pH -->
#     <pH_Sensor SensorID="43" >
#       <SerialNumber>0363</SerialNumber>
#       <CalibrationDate>16-Mar-18</CalibrationDate>
#       <Slope>4.6194</Slope>
#       <Offset>2.5947</Offset>
#     </pH_Sensor>
#   </sensor>
#   <sensor Channel="5" >
#     <!-- A/D voltage 1, Oxidation Reduction Potential -->
#     <OxidationReductionPotentialSensor SensorID="41" >
#       <SerialNumber>0363</SerialNumber>
#       <CalibrationDate>16-Mar-18</CalibrationDate>
#       <B>2.499480</B>
#       <M>-0.496195</M>
#       <Offset>0.0</Offset>
#     </OxidationReductionPotentialSensor>
#   </sensor>
#   <sensor Channel="6" >
#     <!-- A/D voltage 2, Oxygen, SBE 43 -->
#     <OxygenSensor SensorID="38" >
#       <SerialNumber>0434</SerialNumber>
#       <CalibrationDate>13-Mar-18</CalibrationDate>
#       <Use2007Equation>1</Use2007Equation>
#       <CalibrationCoefficients equation="0" >
#         <!-- Coefficients for Owens-Millard equation. -->
#         <Boc>0.0000</Boc>
#         <Soc>0.0000e+000</Soc>
#         <offset>0.0000</offset>
#         <Pcor>0.00e+000</Pcor>
#         <Tcor>0.0000</Tcor>
#         <Tau>0.0</Tau>
#       </CalibrationCoefficients>
#       <CalibrationCoefficients equation="1" >
#         <!-- Coefficients for Sea-Bird equation - SBE calibration in 2007 and later. -->
#         <Soc>4.5718e-001</Soc>
#         <offset>-0.6113</offset>
#         <A>-4.0649e-003</A>
#         <B> 2.0945e-004</B>
#         <C>-3.3182e-006</C>
#         <D0> 2.5826e+000</D0>
#         <D1> 1.92634e-004</D1>
#         <D2>-4.64803e-002</D2>
#         <E> 3.6000e-002</E>
#         <Tau20> 1.2200</Tau20>
#         <H1>-3.3000e-002</H1>
#         <H2> 5.0000e+003</H2>
#         <H3> 1.4500e+003</H3>
#       </CalibrationCoefficients>
#     </OxygenSensor>
#   </sensor>
#   <sensor Channel="7" >
#     <!-- A/D voltage 3, PAR/Logarithmic, Satlantic -->
#     <PARLog_SatlanticSensor SensorID="76" >
#       <SerialNumber>1122</SerialNumber>
#       <CalibrationDate>22-Jun-2017</CalibrationDate>
#       <a0>9.6090e-001</a0>
#       <a1>8.0780e-001</a1>
#       <Im>1.3589e+000</Im>
#       <Multiplier>1.0000e+000</Multiplier>
#     </PARLog_SatlanticSensor>
#   </sensor>
#   <sensor Channel="8" >
#     <!-- A/D voltage 4, Fluorometer, WET Labs ECO-AFL/FL -->
#     <FluoroWetlabECO_AFL_FL_Sensor SensorID="20" >
#       <SerialNumber>FLNTURT-2496</SerialNumber>
#       <CalibrationDate>25-Jan-2017</CalibrationDate>
#       <ScaleFactor>5.30000000e+001</ScaleFactor>
#       <!-- Dark output -->
#       <Vblank>0.0560</Vblank>
#     </FluoroWetlabECO_AFL_FL_Sensor>
#   </sensor>
#   <sensor Channel="9" >
#     <!-- A/D voltage 5, Turbidity Meter, WET Labs, ECO-NTU -->
#     <TurbidityMeter SensorID="67" >
#       <SerialNumber>FLNTURT-2496</SerialNumber>
#       <CalibrationDate>25-Jan-2017</CalibrationDate>
#       <ScaleFactor>176.000000</ScaleFactor>
#       <!-- Dark output -->
#       <DarkVoltage>0.072000</DarkVoltage>
#     </TurbidityMeter>
#   </sensor>
# </Sensors>
# datcnv_date = Jul 30 2018 16:35:50, 7.26.7.114 [datcnv_vars = 14]
# datcnv_in = C:\DATA\073018_fcr10.hex C:\DATA\SBE19plusV2_7809.xmlcon
# datcnv_skipover = 0
# datcnv_ox_hysteresis_correction = yes
# datcnv_ox_tau_correction = yes
# filter_date = Jul 30 2018 16:36:33, 7.26.7.114
# filter_in = C:\DATA\073018_fcr10.cnv
# filter_low_pass_tc_A = 0.030
# filter_low_pass_tc_B = 0.150
# filter_low_pass_A_vars = prdM prdE tv290C
# filter_low_pass_B_vars = depFM dz/dtM sbeox0Mg/L sbeox0PS specc c0uS/cm flECO-AFL ph orp par/sat/log turbWETntu0
# alignctd_date = Jul 30 2018 16:36:57, 7.26.7.114
# alignctd_in = C:\DATA\073018_fcr10.cnv
# alignctd_adv = dz/dtM 1.000, sbeox0Mg/L 1.000, sbeox0PS 1.000, specc 1.000, c0uS/cm 1.000, flECO-AFL 1.000, ph 1.000, orp 1.000, turbWETntu0 1.000                                                                                 
# file_type = ascii
*END*
     -0.558 2.0951e-14     8.8083     98.875      1.947   1.792971    -0.1786      6.084  -444.7515 9.4571e+01    -0.0288     -0.547     -0.793    21.0329 0.0000e+00
     -0.558 2.3046e-13     8.8085     98.878      1.947   1.792888    -0.1837      6.084  -445.7744 9.4181e+01    -0.0295     -0.547     -0.793    21.0331 0.0000e+00
     -0.558 2.5350e-12     8.8096     98.890      1.946   1.791748    -0.1872      6.085  -447.8558 9.6132e+01     0.0012     -0.547     -0.793    21.0336 0.0000e+00
     -0.558 2.7885e-11     8.8114     98.911      1.932   1.779184    -0.1837      6.087  -444.8790 1.0004e+02     0.0065     -0.547     -0.793    21.0336 0.0000e+00
     -0.558 3.0674e-10     8.8116     98.914      1.920   1.767810    -0.1870      6.089  -440.4124 1.0380e+02     0.0040     -0.547     -0.793    21.0337 0.0000e+00
     -0.558 3.3741e-09     8.8107     98.905      1.934   1.781059    -0.1906      6.090  -442.3762 1.0843e+02     0.0014     -0.547     -0.793    21.0336 0.0000e+00
     -0.558 3.7115e-08     8.8098     98.896      1.968   1.812544    -0.1810      6.092  -447.0275 1.1463e+02     0.0064     -0.547     -0.794    21.0343 0.0000e+00
     -0.558 4.0827e-07     8.8095     98.893      1.989   1.831421    -0.1719      6.095  -443.9087 1.1988e+02    -0.0583     -0.547     -0.793    21.0338 0.0000e+00
     -0.558      0.000     8.8100     98.900      1.975   1.819049    -0.1727      6.101  -380.5760 1.2314e+02    -0.1710     -0.547     -0.794    21.0354 0.0000e+00
     -0.558      0.000     8.8098     98.899      2.012   1.853200    -0.1822      6.110  -274.8620 1.2440e+02    -0.1964     -0.547     -0.794    21.0341 0.0000e+00
     -0.558      0.001     8.8084     98.892      2.640   2.434582    -0.1944      6.121  -233.3915 1.2379e+02    -0.1821     -0.547     -0.793    21.0374 0.0000e+00
     -0.558      0.006     8.8001     98.891      9.362   8.658240    -0.1911      6.209  -133.5778 1.2061e+02    -0.1815     -0.547     -0.793    21.0324 0.0000e+00
     -0.558      0.026     8.7496     98.906     24.707  23.040950    -0.1794      6.569    68.6589 1.1357e+02    -0.1888     -0.548     -0.795    21.0408 0.0000e+00
     -0.558      0.063     8.6312     98.943     37.243  35.183011    -0.1625      7.187   161.0904 1.0515e+02    -0.1474     -0.546     -0.792    21.0280 0.0000e+00
     -0.556      0.111     8.4907     98.981     39.938  38.337199    -0.0611      7.742   163.4463 1.0051e+02     0.6540     -0.549     -0.796    21.0499 0.0000e+00
     -0.537      0.155     8.3794     99.016     38.683  37.681972     0.9736      8.075   175.6980 1.0142e+02     9.4396     -0.544     -0.789    21.0149 0.0000e+00
     -0.478      0.185     8.3038     99.095     37.747  37.172377     2.8722      8.241   181.2837 1.0495e+02    25.4801     -0.483     -0.698    21.1712 0.0000e+00
     -0.388      0.195     8.2592     99.242     37.230  36.940932     3.9180      8.313   172.3897 1.0848e+02    34.1650     -0.377     -0.545    22.0788 0.0000e+00
     -0.306      0.187     8.2390     99.418     36.907  36.789786     4.0875      8.363   153.2555 1.1149e+02    34.2777     -0.287     -0.416    23.1002 0.0000e+00
     -0.257      0.166     8.2345     99.595     36.703  36.679163     4.9040      8.416   139.7365 1.1377e+02    26.8727     -0.240     -0.349    23.7672 0.0000e+00
     -0.238      0.138     8.2425     99.812     36.596  36.619930     6.3828      8.467   135.0645 1.1561e+02    13.2062     -0.228     -0.331    24.2954 0.0000e+00
     -0.233      0.117     8.2671    100.163     36.600  36.645398     7.1801      8.509   134.3664 1.2013e+02     5.7587     -0.232     -0.337    24.6591 0.0000e+00
     -0.221      0.111     8.3053    100.647     36.679  36.733019     7.2472      8.530   135.7690 1.2671e+02     5.0946     -0.225     -0.326    24.8707 0.0000e+00
     -0.190      0.114     8.3476    101.142     36.743  36.790018     7.2678      8.531   137.2258 1.2901e+02     5.0235     -0.190     -0.275    24.9805 0.0000e+00
     -0.146      0.117     8.3971    101.641     36.819  36.826354     7.2825      8.534   138.3867 1.2547e+02     4.8382     -0.145     -0.210    25.0403 0.0000e+00
     -0.098      0.114     8.4562    102.199     36.909  36.854673     7.2781      8.549   139.5653 1.2045e+02     4.5326     -0.096     -0.139    25.0601 0.0000e+00
     -0.059      0.100     8.5365    103.059     36.912  36.814695     7.2700      8.572   140.7208 1.1982e+02     4.3795     -0.047     -0.067    25.0706 0.0000e+00
     -0.042      0.077     8.6427    104.339     36.759  36.660545     7.2760      8.593   141.8623 1.2233e+02     4.3915     -0.034     -0.050    25.0784 0.0000e+00
     -0.038      0.052     8.7299    105.463     36.523  36.451923     7.2953      8.610   143.0417 1.2169e+02     4.3726     -0.043     -0.062    25.0202 0.0000e+00
     -0.031      0.030     8.7580    105.895     36.361  36.325094     7.3194      8.622   144.3118 1.1922e+02     4.2732     -0.029     -0.042    24.9071 0.0000e+00
     -0.024      0.016     8.7286    105.633     36.271  36.270556     7.3374      8.631   145.9479 1.1817e+02     4.1970     -0.021     -0.030    24.8377 0.0000e+00
     -0.024      0.011     8.6588    104.874     36.205  36.237230     7.3481      8.637   147.7674 1.1802e+02     4.1837     -0.024     -0.035    24.8476 0.0000e+00
     -0.024      0.009     8.5628    103.788     36.179  36.239823     7.3843      8.641   149.5333 1.1815e+02     4.1420     -0.024     -0.034    24.8957 0.0000e+00
     -0.023      0.007     8.4467    102.442     36.154  36.238430     7.4433      8.644   151.3824 1.1815e+02     4.0587     -0.022     -0.032    24.9461 0.0000e+00
     -0.020      0.006     8.3192    100.942     36.118  36.220424     7.4736      8.646   153.0887 1.1813e+02     4.0007     -0.019     -0.028    24.9945 0.0000e+00
     -0.018      0.006     8.2034     99.570     36.098  36.212702     7.4755      8.649   154.5055 1.1839e+02     3.9607     -0.018     -0.026    25.0406 0.0000e+00
     -0.016      0.005     8.1221     98.608     36.083  36.208612     7.4843      8.653   156.1223 1.1885e+02     4.0015     -0.015     -0.022    25.0802 0.0000e+00
     -0.014      0.003     8.0745     98.050     36.102  36.234502     7.5159      8.656   157.9244 1.1915e+02     4.1285     -0.013     -0.020    25.1142 0.0000e+00
     -0.014      0.001     8.0433     97.679     36.199  36.335182     7.5444      8.659   159.3449 1.1920e+02     4.1839     -0.014     -0.021    25.1387 0.0000e+00
     -0.014     -0.001     8.0072     97.236     36.401  36.536592     7.5452      8.661   160.3919 1.1923e+02     4.1832     -0.014     -0.020    25.1534 0.0000e+00
     -0.015     -0.002     7.9518     96.554     36.695  36.827527     7.5344      8.664   161.4631 1.1936e+02     4.2115     -0.014     -0.021    25.1683 0.0000e+00
     -0.016     -0.003     7.8772     95.641     36.991  37.121271     7.5240      8.667   162.4016 1.1951e+02     4.2507     -0.015     -0.022    25.1808 0.0000e+00
     -0.018     -0.003     7.7911     94.593     37.226  37.356615     7.5215      8.670   163.3078 1.1959e+02     4.2604     -0.017     -0.025    25.1850 0.0000e+00
     -0.018     -0.003     7.7024     93.520     37.444  37.576677     7.5308      8.675   164.1604 1.1972e+02     4.2377     -0.018     -0.026    25.1811 0.0000e+00
     -0.019     -0.002     7.6199     92.525     37.676  37.812674     7.5358      8.681   164.4503 1.1992e+02     4.2197     -0.018     -0.026    25.1740 0.0000e+00
     -0.019     -0.002     7.5559     91.756     37.846  37.986549     7.5356      8.687   164.5759 1.2003e+02     4.2264     -0.019     -0.028    25.1692 0.0000e+00
     -0.019     -0.002     7.5268     91.411     37.883  38.027251     7.5375      8.689   165.0771 1.2000e+02     4.2274     -0.020     -0.029    25.1683 0.0000e+00
     -0.019     -0.001     7.5422     91.605     37.840  37.987162     7.5396      8.689   165.8637 1.1961e+02     4.2315     -0.017     -0.026    25.1705 0.0000e+00
     -0.020      0.001     7.5951     92.252     37.798  37.946545     7.5431      8.691   166.7737 1.1876e+02     4.2750     -0.018     -0.027    25.1744 0.0000e+00
     -0.022      0.003     7.6660     93.114     37.768  37.917326     7.5529      8.694   167.7344 1.1796e+02     4.3265     -0.023     -0.033    25.1797 0.0000e+00
     -0.022      0.005     7.7403     94.016     37.739  37.888000     7.5844      8.698   168.7033 1.1761e+02     4.3666     -0.024     -0.035    25.1851 0.0000e+00
     -0.019      0.006     7.8177     94.955     37.698  37.846072     7.6121      8.701   169.4541 1.1763e+02     4.3936     -0.018     -0.027    25.1895 0.0000e+00
     -0.014      0.007     7.8957     95.900     37.645  37.791551     7.6120      8.701   169.8432 1.1772e+02     4.4085     -0.012     -0.018    25.1918 0.0000e+00
     -0.011      0.007     7.9629     96.713     37.591  37.737022     7.5732      8.701   170.2240 1.1782e+02     4.3640     -0.011     -0.016    25.1922 0.0000e+00
     -0.010      0.006     8.0095     97.280     37.549  37.694994     7.5018      8.703   170.8753 1.1792e+02     4.2516     -0.011     -0.016    25.1924 0.0000e+00
     -0.009      0.004     8.0352     97.596     37.517  37.664560     7.4654      8.705   171.5234 1.1796e+02     4.1786     -0.009     -0.014    25.1916 0.0000e+00
     -0.009      0.002     8.0494     97.774     37.474  37.623156     7.4639      8.707   172.1229 1.1796e+02     4.1831     -0.008     -0.012    25.1894 0.0000e+00
     -0.009      0.001     8.0644     97.960     37.424  37.575557     7.4749      8.709   172.7892 1.1805e+02     4.1836     -0.009     -0.013    25.1874 0.0000e+00
     -0.009      0.001     8.0876     98.246     37.381  37.533746     7.5058      8.711   173.2987 1.1816e+02     4.0940     -0.009     -0.014    25.1871 0.0000e+00
     -0.009      0.002     8.1192     98.632     37.345  37.498789     7.5256      8.712   173.8089 1.1823e+02     3.9841     -0.009     -0.013    25.1902 0.0000e+00
     -0.009      0.003     8.1538     99.051     37.318  37.470532     7.5304      8.713   174.4842 1.1832e+02     3.9846     -0.008     -0.012    25.1941 0.0000e+00
     -0.009      0.004     8.1853     99.426     37.297  37.446197     7.5455      8.715   175.0117 1.1840e+02     4.1006     -0.009     -0.013    25.1964 0.0000e+00
     -0.008      0.005     8.2088     99.696     37.316  37.458666     7.5704      8.718   175.2823 1.1840e+02     4.2267     -0.008     -0.011    25.1988 0.0000e+00
     -0.005      0.005     8.2191     99.806     37.357  37.494232     7.5833      8.722   175.5191 1.1838e+02     4.2583     -0.005     -0.008    25.2007 0.0000e+00
     -0.003      0.004     8.2138     99.730     37.363  37.495051     7.5821      8.726   175.8088 1.1841e+02     4.2079     -0.003     -0.004    25.2006 0.0000e+00
     -0.001      0.004     8.1965     99.507     37.342  37.468560     7.5826      8.731   176.2048 1.1846e+02     4.1668     -0.001     -0.001    25.1954 0.0000e+00
     -0.001      0.004     8.1716     99.186     37.308  37.428028     7.5892      8.737   176.7797 1.1841e+02     4.1882      0.000     -0.000    25.1861 0.0000e+00
     -0.001      0.003     8.1407     98.786     37.277  37.386134     7.5980      8.741   177.4255 1.1826e+02     4.2225     -0.001     -0.002    25.1775 0.0000e+00
