* Sea-Bird SBE19plus  Data File:
* FileName = C:\R\Reservoirs\Data\DataNotYetUploadedToEDI\Raw_CTD\RawDownloads\073124_ccr88_S8188_0001.hex
* Software version 2.8.0.119
* Temperature SN = 8188
* Conductivity SN = 8188
* System UpLoad Time = Aug 02 2024 14:05:05
* <ApplicationData>
* <Seaterm232>
* <SoftwareVersion>2.8.0.119</SoftwareVersion>
* <BuildDate>07-Nov-2018</BuildDate>
* </Seaterm232>
* </ApplicationData>
* <InstrumentState>
* <HardwareData DeviceType='SBE19plus' SerialNumber='01908188'>
*
*    <Manufacturer>Sea-Bird Electronics, Inc.</Manufacturer>
*
*    <FirmwareVersion>3.1.8</FirmwareVersion>
*
*    <FirmwareDate>Mar  9 2016 16:22:29</FirmwareDate>
*
*    <CommandSetVersion>1.4</CommandSetVersion>
*
*    <PCBAssembly PCBSerialNum='260079' AssemblyNum='41054K'/>
*
*    <PCBAssembly PCBSerialNum='260083' AssemblyNum='41059E'/>
*
*    <PCBAssembly PCBSerialNum='260085' AssemblyNum='41606B'/>
*
*    <PCBAssembly PCBSerialNum='260081' AssemblyNum='41967C'/>
*
*    <MfgDate>30 Mar 2022</MfgDate>
*
*    <InternalSensors>
*
*       <Sensor id='Main Temperature'>
*
*          <type>temperature0</type>
*
*          <SerialNumber>01908188</SerialNumber>
*
*       </Sensor>
*
*       <Sensor id='Main Conductivity'>
*
*          <type>conductivity-0</type>
*
*          <SerialNumber>01908188</SerialNumber>
*
*       </Sensor>
*
*       <Sensor id='Main Pressure'>
*
*          <type>strain-0</type>
*
*          <SerialNumber>12220741</SerialNumber>
*
*       </Sensor>
*
*    </InternalSensors>
*
*    <ExternalSensors>
*
*       <Sensor id='volt 0'>
*
*          <type>CHL</type>
*
*          <SerialNumber>FLNTURT-7096</SerialNumber>
*
*       </Sensor>
*
*       <Sensor id='volt 1'>
*
*          <type>NTU</type>
*
*          <SerialNumber>FLNTURT-7096</SerialNumber>
*
*       </Sensor>
*
*       <Sensor id='volt 2'>
*
*          <type>OXY</type>
*
*          <SerialNumber>43-4269</SerialNumber>
*
*       </Sensor>
*
*       <Sensor id='volt 3'>
*
*          <type>not assigned</type>
*
*          <SerialNumber>not assigned</SerialNumber>
*
*       </Sensor>
*
*       <Sensor id='volt 4'>
*
*          <type>PAR</type>
*
*          <SerialNumber>PARLOGICSW-2209</SerialNumber>
*
*       </Sensor>
*
*       <Sensor id='volt 5'>
*
*          <type>not assigned</type>
*
*          <SerialNumber>not assigned</SerialNumber>
*
*       </Sensor>
*
*       <Sensor id='serial'>
*
*          <type>WETLABS</type>
*
*          <SerialNumber>FL3-7350</SerialNumber>
*
*       </Sensor>
*
*    </ExternalSensors>
*
* </HardwareData>
* <StatusData DeviceType='SBE19plus' SerialNumber='01908188'>
*
*    <DateTime>2024-08-02T14:04:34</DateTime>
*
*    <LoggingState>not logging</LoggingState>
*
*    <EventSummary numEvents='0'/>
*
*    <Power>
*
*       <vMain>12.5</vMain>
*
*       <vLith>8.6</vLith>
*
*       <iMain>61.8</iMain>
*
*       <iPump>49.3</iPump>
*
*       <iExt01>22.3</iExt01>
*
*       <iExt2345>20.5</iExt2345>
*
*       <iSerial>54.0</iSerial>
*
*    </Power>
*
*    <MemorySummary>
*
*       <Bytes>301425</Bytes>
*
*       <Samples>12057</Samples>
*
*       <SamplesFree>2619868</SamplesFree>
*
*       <SampleLength>25</SampleLength>
*
*       <Profiles>11</Profiles>
*
*    </MemorySummary>
*
* </StatusData>
* <ConfigurationData DeviceType='SBE19plus' SerialNumber='01908188'>
*
*    <ProfileMode>
*
*       <ScansToAverage>1</ScansToAverage>
*
*       <MinimumCondFreq>2</MinimumCondFreq>
*
*       <PumpDelay>90</PumpDelay>
*
*       <AutoRun>no</AutoRun>
*
*       <IgnoreSwitch>no</IgnoreSwitch>
*
*    </ProfileMode>
*
*    <Battery>
*
*       <Type>alkaline</Type>
*
*       <CutOff>7.5</CutOff>
*
*    </Battery>
*
*    <DataChannels>
*
*       <ExtVolt0>yes</ExtVolt0>
*
*       <ExtVolt1>yes</ExtVolt1>
*
*       <ExtVolt2>yes</ExtVolt2>
*
*       <ExtVolt3>no</ExtVolt3>
*
*       <ExtVolt4>yes</ExtVolt4>
*
*       <ExtVolt5>no</ExtVolt5>
*
*       <SBE38>no</SBE38>
*
*       <WETLABS>yes</WETLABS>
*
*       <OPTODE>no</OPTODE>
*
*       <SBE63>no</SBE63>
*
*       <SeaFET>no</SeaFET>
*
*       <GTD>no</GTD>
*
*    </DataChannels>
*
*    <EchoCharacters>yes</EchoCharacters>
*
*    <OutputExecutedTag>yes</OutputExecutedTag>
*
*    <OutputFormat>raw HEX</OutputFormat>
*
* </ConfigurationData>
* <CalibrationCoefficients DeviceType='SBE19plus' SerialNumber='01908188'>
*
*    <Calibration format='TEMP1' id='Main Temperature'>
*
*       <SerialNum>01908188</SerialNum>
*
*       <CalDate>07-May-24</CalDate>
*
*       <TA0>1.249325e-03</TA0>
*
*       <TA1>2.751683e-04</TA1>
*
*       <TA2>-1.314205e-06</TA2>
*
*       <TA3>1.914222e-07</TA3>
*
*       <TOFFSET>0.000000e+00</TOFFSET>
*
*    </Calibration>
*
*    <Calibration format='WBCOND0' id='Main Conductivity'>
*
*       <SerialNum>01908188</SerialNum>
*
*       <CalDate>07-May-24</CalDate>
*
*       <G>-1.014855e+00</G>
*
*       <H>1.444624e-01</H>
*
*       <I>-3.430060e-04</I>
*
*       <J>4.842261e-05</J>
*
*       <CPCOR>-9.570000e-08</CPCOR>
*
*       <CTCOR>3.250000e-06</CTCOR>
*
*       <CSLOPE>1.000000e+00</CSLOPE>
*
*    </Calibration>
*
*    <Calibration format='STRAIN0' id='Main Pressure'>
*
*       <SerialNum>12220741</SerialNum>
*
*       <CalDate>03-Apr-24</CalDate>
*
*       <PA0>7.209200e-02</PA0>
*
*       <PA1>4.836684e-04</PA1>
*
*       <PA2>-3.501227e-12</PA2>
*
*       <PTCA0>5.244614e+05</PTCA0>
*
*       <PTCA1>2.020364e+01</PTCA1>
*
*       <PTCA2>-6.074616e-01</PTCA2>
*
*       <PTCB0>2.522087e+01</PTCB0>
*
*       <PTCB1>5.750000e-04</PTCB1>
*
*       <PTCB2>0.000000e+00</PTCB2>
*
*       <PTEMPA0>-5.770713e+01</PTEMPA0>
*
*       <PTEMPA1>5.343973e+01</PTEMPA1>
*
*       <PTEMPA2>-5.775530e-01</PTEMPA2>
*
*       <POFFSET>7.020000e-01</POFFSET>
*
*       <PRANGE>1.600000e+02</PRANGE>
*
*    </Calibration>
*
*    <Calibration format='VOLT0' id='Volt 0'>
*
*       <OFFSET>-4.657200e-02</OFFSET>
*
*       <SLOPE>1.248989e+00</SLOPE>
*
*    </Calibration>
*
*    <Calibration format='VOLT0' id='Volt 1'>
*
*       <OFFSET>-4.600800e-02</OFFSET>
*
*       <SLOPE>1.249849e+00</SLOPE>
*
*    </Calibration>
*
*    <Calibration format='VOLT0' id='Volt 2'>
*
*       <OFFSET>-4.668000e-02</OFFSET>
*
*       <SLOPE>1.250379e+00</SLOPE>
*
*    </Calibration>
*
*    <Calibration format='VOLT0' id='Volt 3'>
*
*       <OFFSET>-4.643200e-02</OFFSET>
*
*       <SLOPE>1.251002e+00</SLOPE>
*
*    </Calibration>
*
*    <Calibration format='VOLT0' id='Volt 4'>
*
*       <OFFSET>-4.606100e-02</OFFSET>
*
*       <SLOPE>1.249962e+00</SLOPE>
*
*    </Calibration>
*
*    <Calibration format='VOLT0' id='Volt 5'>
*
*       <OFFSET>-4.642700e-02</OFFSET>
*
*       <SLOPE>1.248530e+00</SLOPE>
*
*    </Calibration>
*
*    <Calibration format='FREQ0' id='external frequency channel'>
*
*       <EXTFREQSF>1.000018e+00</EXTFREQSF>
*
*    </Calibration>
*
* </CalibrationCoefficients>
* <EventCounters DeviceType='SBE19plus' SerialNumber='01908188'>
*
*    <EventSummary numEvents='0'/>
*
* </EventCounters></InstrumentState>
* <Headers>
*
* cast   1 31 Jul 2024 12:28:20 samples 1 to 970, avg = 1, stop = mag switch
*
# nquan = 16
# nvalues = 970                         
# units = specified
# name 0 = depFM: Depth [fresh water, m]
# name 1 = dz/dtM: Descent Rate [m/s]
# name 2 = sbeox0Mg/L: Oxygen, SBE 43 [mg/l]
# name 3 = sbeox0PS: Oxygen, SBE 43 [% saturation]
# name 4 = specc: Specific Conductance [uS/cm]
# name 5 = c0uS/cm: Conductivity [uS/cm]
# name 6 = wetCDOM: Fluorescence, WET Labs CDOM [mg/m^3]
# name 7 = flECO-AFL: Fluorescence, WET Labs ECO-AFL/FL [mg/m^3]
# name 8 = flECO-AFL1: Fluorescence, WET Labs ECO-AFL/FL, 2 [mg/m^3]
# name 9 = flECO-AFL2: Fluorescence, WET Labs ECO-AFL/FL, 3 [mg/m^3]
# name 10 = par/sat/log: PAR/Logarithmic, Satlantic
# name 11 = turbWETntu0: Turbidity, WET Labs ECO [NTU]
# name 12 = prdM: Pressure, Strain Gauge [db]
# name 13 = prdE: Pressure, Strain Gauge [psi]
# name 14 = tv290C: Temperature [ITS-90, deg C]
# name 15 = flag:  0.000e+00
# span 0 =     -0.407,     10.806       
# span 1 =     -0.354,      0.138       
# span 2 =     3.9496,     9.1907       
# span 3 =     37.139,    117.704       
# span 4 =   -424.361,    124.957       
# span 5 =-458.553192, 126.714101       
# span 6 =    -4.5000,    27.8100       
# span 7 =    -1.1467,   245.0958       
# span 8 =    -2.1300,     3.1950       
# span 9 =    -2.0304,     2.4957       
# span 10 = 4.1653e-01, 2.8338e+03      
# span 11 =    -6.1104,   970.7470      
# span 12 =     -0.399,     10.597      
# span 13 =     -0.580,     15.370      
# span 14 =    12.4245,    34.9858      
# span 15 = 0.0000e+00, 0.0000e+00      
# interval = seconds: 0.25
# start_time = Jul 31 2024 12:28:20 [Instrument's time stamp, header]
# bad_flag = -9.990e-29
# <Sensors count="10" >
#   <sensor Channel="1" >
#     <!-- Count, Temperature -->
#     <TemperatureSensor SensorID="58" >
#       <SerialNumber>8188</SerialNumber>
#       <CalibrationDate>07-May-24</CalibrationDate>
#       <A0>1.24932504e-003</A0>
#       <A1>2.75168293e-004</A1>
#       <A2>-1.31420465e-006</A2>
#       <A3>1.91422179e-007</A3>
#       <Slope>1.00000000</Slope>
#       <Offset>0.0000</Offset>
#     </TemperatureSensor>
#   </sensor>
#   <sensor Channel="2" >
#     <!-- Frequency 0, Conductivity -->
#     <ConductivitySensor SensorID="3" >
#       <SerialNumber>8188</SerialNumber>
#       <CalibrationDate>07-May-24</CalibrationDate>
#       <UseG_J>1</UseG_J>
#       <!-- Cell const and series R are applicable only for wide range sensors. -->
#       <SeriesR>0.0000</SeriesR>
#       <CellConst>2000.0000</CellConst>
#       <ConductivityType>0</ConductivityType>
#       <Coefficients equation="0" >
#         <A>0.00000000e+000</A>
#         <B>0.00000000e+000</B>
#         <C>0.00000000e+000</C>
#         <D>0.00000000e+000</D>
#         <M>0.0</M>
#         <CPcor>-9.57000000e-008</CPcor>
#       </Coefficients>
#       <Coefficients equation="1" >
#         <G>-1.01485473e+000</G>
#         <H>1.44462400e-001</H>
#         <I>-3.43006030e-004</I>
#         <J>4.84226116e-005</J>
#         <CPcor>-9.57000000e-008</CPcor>
#         <CTcor>3.2500e-006</CTcor>
#         <!-- WBOTC not applicable unless ConductivityType = 1. -->
#         <WBOTC>0.00000000e+000</WBOTC>
#       </Coefficients>
#       <Slope>1.00000000</Slope>
#       <Offset>0.00000</Offset>
#     </ConductivitySensor>
#   </sensor>
#   <sensor Channel="3" >
#     <!-- Count, Pressure, Strain Gauge -->
#     <PressureSensor SensorID="46" >
#       <SerialNumber>8188</SerialNumber>
#       <CalibrationDate>03-Apr-24</CalibrationDate>
#       <PA0>7.20920045e-002</PA0>
#       <PA1>4.83668449e-004</PA1>
#       <PA2>-3.50122678e-012</PA2>
#       <PTEMPA0>-5.77071299e+001</PTEMPA0>
#       <PTEMPA1>5.34397285e+001</PTEMPA1>
#       <PTEMPA2>-5.77553003e-001</PTEMPA2>
#       <PTCA0>5.24461366e+005</PTCA0>
#       <PTCA1>2.02036405e+001</PTCA1>
#       <PTCA2>-6.07461634e-001</PTCA2>
#       <PTCB0>2.52208750e+001</PTCB0>
#       <PTCB1>5.75000000e-004</PTCB1>
#       <PTCB2>0.00000000e+000</PTCB2>
#       <Offset>0.000000</Offset>
#     </PressureSensor>
#   </sensor>
#   <sensor Channel="4" >
#     <!-- A/D voltage 0, Fluorometer, WET Labs ECO-AFL/FL -->
#     <FluoroWetlabECO_AFL_FL_Sensor SensorID="20" >
#       <SerialNumber>FLNTURT-7096</SerialNumber>
#       <CalibrationDate>21-Mar-2024</CalibrationDate>
#       <ScaleFactor>5.00000000e+001</ScaleFactor>
#       <!-- Dark output -->
#       <Vblank>0.0710</Vblank>
#     </FluoroWetlabECO_AFL_FL_Sensor>
#   </sensor>
#   <sensor Channel="5" >
#     <!-- A/D voltage 1, Turbidity Meter, WET Labs, ECO-NTU -->
#     <TurbidityMeter SensorID="67" >
#       <SerialNumber>FLNTURT-7096</SerialNumber>
#       <CalibrationDate>21-Mar-2024</CalibrationDate>
#       <ScaleFactor>198.000000</ScaleFactor>
#       <!-- Dark output -->
#       <DarkVoltage>0.070000</DarkVoltage>
#     </TurbidityMeter>
#   </sensor>
#   <sensor Channel="6" >
#     <!-- A/D voltage 2, Oxygen, SBE 43 -->
#     <OxygenSensor SensorID="38" >
#       <SerialNumber>4269</SerialNumber>
#       <CalibrationDate>08-May-24</CalibrationDate>
#       <Use2007Equation>1</Use2007Equation>
#       <CalibrationCoefficients equation="0" >
#         <!-- Coefficients for Owens-Millard equation. -->
#         <Boc>0.0000</Boc>
#         <Soc>0.0000e+000</Soc>
#         <offset>0.0000</offset>
#         <Pcor>0.00e+000</Pcor>
#         <Tcor>0.0000</Tcor>
#         <Tau>0.0</Tau>
#       </CalibrationCoefficients>
#       <CalibrationCoefficients equation="1" >
#         <!-- Coefficients for Sea-Bird equation - SBE calibration in 2007 and later. -->
#         <Soc>4.3983e-001</Soc>
#         <offset>-0.4978</offset>
#         <A>-4.5504e-003</A>
#         <B> 2.4929e-004</B>
#         <C>-4.1306e-006</C>
#         <D0> 2.5826e+000</D0>
#         <D1> 1.92634e-004</D1>
#         <D2>-4.64803e-002</D2>
#         <E> 3.6000e-002</E>
#         <Tau20> 1.9700</Tau20>
#         <H1>-3.3000e-002</H1>
#         <H2> 5.0000e+003</H2>
#         <H3> 1.4500e+003</H3>
#       </CalibrationCoefficients>
#     </OxygenSensor>
#   </sensor>
#   <sensor Channel="7" >
#     <!-- A/D voltage 3, PAR/Logarithmic, Satlantic -->
#     <PARLog_SatlanticSensor SensorID="76" >
#       <SerialNumber>2209</SerialNumber>
#       <CalibrationDate>14-Jan-2022</CalibrationDate>
#       <a0>9.8861e-001</a0>
#       <a1>8.0845e-001</a1>
#       <Im>1.3589e+000</Im>
#       <Multiplier>1.0000e+000</Multiplier>
#     </PARLog_SatlanticSensor>
#   </sensor>
#   <sensor Channel="8" >
#     <!-- Serial RS-232, Fluorometer, WET Labs ECO-AFL/FL, 2 -->
#     <FluoroWetlabECO_AFL_FL_Sensor SensorID="20" >
#       <SerialNumber>FL3-7350</SerialNumber>
#       <CalibrationDate>10-Mar-2022</CalibrationDate>
#       <ScaleFactor>4.26000000e-002</ScaleFactor>
#       <!-- Dark output -->
#       <Vblank>50.0000</Vblank>
#     </FluoroWetlabECO_AFL_FL_Sensor>
#   </sensor>
#   <sensor Channel="9" >
#     <!-- Serial RS-232, Fluorometer, WET Labs ECO-AFL/FL, 3 -->
#     <FluoroWetlabECO_AFL_FL_Sensor SensorID="20" >
#       <SerialNumber>FL3-7350</SerialNumber>
#       <CalibrationDate>10-Mar-2022</CalibrationDate>
#       <ScaleFactor>4.23000000e-002</ScaleFactor>
#       <!-- Dark output -->
#       <Vblank>48.0000</Vblank>
#     </FluoroWetlabECO_AFL_FL_Sensor>
#   </sensor>
#   <sensor Channel="10" >
#     <!-- Serial RS-232, Fluorometer, WET Labs ECO CDOM -->
#     <FluoroWetlabCDOM_Sensor SensorID="19" >
#       <SerialNumber>FL3-7350</SerialNumber>
#       <CalibrationDate>10-Mar-2022</CalibrationDate>
#       <ScaleFactor>0.090</ScaleFactor>
#       <!-- Dark output -->
#       <Vblank>50.000</Vblank>
#     </FluoroWetlabCDOM_Sensor>
#   </sensor>
# </Sensors>
# datcnv_date = Aug 02 2024 14:31:39, 7.26.7.129 [datcnv_vars = 15]
# datcnv_in = C:\R\Reservoirs\Data\DataNotYetUploadedToEDI\Raw_CTD\RawDownloads\073124_ccr88_S8188001.hex C:\R\Reservoirs\Data\DataNotYetUploadedToEDI\Raw_CTD\RawDownloads\SBE19plusV2_8188_start20240601.xmlcon
# datcnv_skipover = 0
# datcnv_ox_hysteresis_correction = yes
# datcnv_ox_tau_correction = yes
# filter_date = Aug 02 2024 14:33:18, 7.26.7.129
# filter_in = C:\R\Reservoirs\Data\DataNotYetUploadedToEDI\Raw_CTD\RawDownloads\073124_ccr88_S8188001.cnv
# filter_low_pass_tc_A = 0.500
# filter_low_pass_tc_B = 1.000
# filter_low_pass_A_vars = sbeox0Mg/L sbeox0PS specc c0uS/cm tv290C
# filter_low_pass_B_vars = depFM dz/dtM prdM prdE
# alignctd_date = Aug 02 2024 14:33:58, 7.26.7.129
# alignctd_in = C:\R\Reservoirs\Data\DataNotYetUploadedToEDI\Raw_CTD\RawDownloads\073124_ccr88_S8188001.cnv
# alignctd_adv = dz/dtM 1.000, sbeox0PS 1.000, specc 1.000, c0uS/cm 1.000, flECO-AFL 1.000, turbWETntu0 1.000                                                                                                                        
# file_type = ascii
*END*
     -0.407      0.006     4.7547     68.632      0.807   0.933120    -4.5000    -0.1701    -2.1300    -2.0304 3.8702e+02    -4.3278     -0.399     -0.580    34.9858 0.0000e+00
     -0.406      0.007     4.7584     68.711      1.141   1.310642    -4.5000    -0.1778    -2.1300    -2.0304 3.4960e+02    -4.4034     -0.398     -0.578    34.9630 0.0000e+00
     -0.404      0.009     4.7638     68.789      1.686   1.926841    -4.5000    -0.1968    -2.1300    -2.0304 3.2925e+02    -4.4638     -0.396     -0.575    34.9392 0.0000e+00
     -0.401      0.012     4.7706     68.861      2.572   2.926152     0.0000    -0.2273     0.2982     0.2961 2.5164e+02    -0.0376     -0.394     -0.572    34.9157 0.0000e+00
     -0.398      0.015     4.7782     68.922      4.021   4.559148     0.0000    -0.2426     0.2982     0.2961 1.8536e+02    -0.0527     -0.391     -0.567    34.8887 0.0000e+00
     -0.394      0.020     4.7866     68.978      6.408   7.245388     0.0000    -0.2426     0.2982     0.2961 8.9151e+02    -0.0527     -0.387     -0.562    34.8542 0.0000e+00
     -0.389      0.025     4.7961     69.038     10.360  11.693247     0.0000    -0.2502     0.2982     0.2961 2.7248e+02     0.0228     -0.382     -0.554    34.8053 0.0000e+00
     -0.383      0.031     4.8074     69.109     16.953  19.112684     0.0000    -0.8492     0.2982     0.2961 1.1345e+03    -6.0651     -0.375     -0.545    34.7281 0.0000e+00
     -0.375      0.037     4.8223     69.184     26.381  29.677351     0.0000    -0.8568    -0.6816    -0.2961 3.6736e+02    -6.0802     -0.367     -0.533    34.5989 0.0000e+00
     -0.364      0.043     4.8441     69.252     36.927  41.361711     0.0000    -0.8873    -0.6816    -0.2961 7.9730e+02    -6.1104     -0.357     -0.518    34.3801 0.0000e+00
     -0.351      0.048     4.8786     69.308     47.305  52.683559     0.0000    -0.8644    -0.6816    -0.2961 8.2335e+02    -6.1104     -0.345     -0.500    34.0122 0.0000e+00
     -0.337      0.052     4.9283     69.356     57.847  64.041291     0.0000    -0.0442    -0.6816    -0.2961 1.1379e+03    -0.5814     -0.331     -0.480    33.4702 0.0000e+00
     -0.323      0.054     4.9874     69.396     69.681  76.720937     3.9600    -0.0404     0.8946    -1.5228 1.3834e+03    -0.5814     -0.317     -0.460    32.8229 0.0000e+00
     -0.309      0.055     5.0472     69.429     82.819  90.764447     3.9600    -0.0404     0.8946    -1.5228 1.3194e+03    -0.5210     -0.303     -0.440    32.1695 0.0000e+00
     -0.295      0.056     5.1026     69.456     94.510 103.162264     3.9600    -0.0633     0.8946    -1.5228 9.1228e+02    -0.5966     -0.289     -0.420    31.5664 0.0000e+00
     -0.281      0.056     5.1523     69.481    102.568 111.547674     3.9600    -0.0442     0.8946    -1.5228 8.1694e+02    -0.6117     -0.276     -0.400    31.0303 0.0000e+00
     -0.267      0.055     5.1957     69.507    107.559 116.585104     4.2300    -0.0595     2.4708     2.4957 9.9211e+02    -0.4908     -0.261     -0.379    30.5676 0.0000e+00
     -0.252      0.053     5.2326     69.532    110.680 119.617845     4.2300    -0.0519     2.4708     2.4957 1.5375e+03    -0.4908     -0.247     -0.358    30.1769 0.0000e+00
     -0.237      0.051     5.2643     69.555    112.680 121.478614     4.2300    -0.0557     2.4708     2.4957 1.8116e+03    -0.4908     -0.233     -0.338    29.8431 0.0000e+00
