* Sea-Bird SBE19plus  Data File:
* FileName = C:\R\Reservoirs\Data\DataNotYetUploadedToEDI\Raw_CTD\RawDownloads\073124_ccr88_S8188_0005.hex
* Software version 2.8.0.119
* Temperature SN = 8188
* Conductivity SN = 8188
* System UpLoad Time = Aug 02 2024 14:06:11
* <ApplicationData>
* <Seaterm232>
* <SoftwareVersion>2.8.0.119</SoftwareVersion>
* <BuildDate>07-Nov-2018</BuildDate>
* </Seaterm232>
* </ApplicationData>
* <InstrumentState>
* <HardwareData DeviceType='SBE19plus' SerialNumber='01908188'>
*
*    <Manufacturer>Sea-Bird Electronics, Inc.</Manufacturer>
*
*    <FirmwareVersion>3.1.8</FirmwareVersion>
*
*    <FirmwareDate>Mar  9 2016 16:22:29</FirmwareDate>
*
*    <CommandSetVersion>1.4</CommandSetVersion>
*
*    <PCBAssembly PCBSerialNum='260079' AssemblyNum='41054K'/>
*
*    <PCBAssembly PCBSerialNum='260083' AssemblyNum='41059E'/>
*
*    <PCBAssembly PCBSerialNum='260085' AssemblyNum='41606B'/>
*
*    <PCBAssembly PCBSerialNum='260081' AssemblyNum='41967C'/>
*
*    <MfgDate>30 Mar 2022</MfgDate>
*
*    <InternalSensors>
*
*       <Sensor id='Main Temperature'>
*
*          <type>temperature0</type>
*
*          <SerialNumber>01908188</SerialNumber>
*
*       </Sensor>
*
*       <Sensor id='Main Conductivity'>
*
*          <type>conductivity-0</type>
*
*          <SerialNumber>01908188</SerialNumber>
*
*       </Sensor>
*
*       <Sensor id='Main Pressure'>
*
*          <type>strain-0</type>
*
*          <SerialNumber>12220741</SerialNumber>
*
*       </Sensor>
*
*    </InternalSensors>
*
*    <ExternalSensors>
*
*       <Sensor id='volt 0'>
*
*          <type>CHL</type>
*
*          <SerialNumber>FLNTURT-7096</SerialNumber>
*
*       </Sensor>
*
*       <Sensor id='volt 1'>
*
*          <type>NTU</type>
*
*          <SerialNumber>FLNTURT-7096</SerialNumber>
*
*       </Sensor>
*
*       <Sensor id='volt 2'>
*
*          <type>OXY</type>
*
*          <SerialNumber>43-4269</SerialNumber>
*
*       </Sensor>
*
*       <Sensor id='volt 3'>
*
*          <type>not assigned</type>
*
*          <SerialNumber>not assigned</SerialNumber>
*
*       </Sensor>
*
*       <Sensor id='volt 4'>
*
*          <type>PAR</type>
*
*          <SerialNumber>PARLOGICSW-2209</SerialNumber>
*
*       </Sensor>
*
*       <Sensor id='volt 5'>
*
*          <type>not assigned</type>
*
*          <SerialNumber>not assigned</SerialNumber>
*
*       </Sensor>
*
*       <Sensor id='serial'>
*
*          <type>WETLABS</type>
*
*          <SerialNumber>FL3-7350</SerialNumber>
*
*       </Sensor>
*
*    </ExternalSensors>
*
* </HardwareData>
* <StatusData DeviceType='SBE19plus' SerialNumber='01908188'>
*
*    <DateTime>2024-08-02T14:04:34</DateTime>
*
*    <LoggingState>not logging</LoggingState>
*
*    <EventSummary numEvents='0'/>
*
*    <Power>
*
*       <vMain>12.5</vMain>
*
*       <vLith>8.6</vLith>
*
*       <iMain>61.8</iMain>
*
*       <iPump>49.3</iPump>
*
*       <iExt01>22.3</iExt01>
*
*       <iExt2345>20.5</iExt2345>
*
*       <iSerial>54.0</iSerial>
*
*    </Power>
*
*    <MemorySummary>
*
*       <Bytes>301425</Bytes>
*
*       <Samples>12057</Samples>
*
*       <SamplesFree>2619868</SamplesFree>
*
*       <SampleLength>25</SampleLength>
*
*       <Profiles>11</Profiles>
*
*    </MemorySummary>
*
* </StatusData>
* <ConfigurationData DeviceType='SBE19plus' SerialNumber='01908188'>
*
*    <ProfileMode>
*
*       <ScansToAverage>1</ScansToAverage>
*
*       <MinimumCondFreq>2</MinimumCondFreq>
*
*       <PumpDelay>90</PumpDelay>
*
*       <AutoRun>no</AutoRun>
*
*       <IgnoreSwitch>no</IgnoreSwitch>
*
*    </ProfileMode>
*
*    <Battery>
*
*       <Type>alkaline</Type>
*
*       <CutOff>7.5</CutOff>
*
*    </Battery>
*
*    <DataChannels>
*
*       <ExtVolt0>yes</ExtVolt0>
*
*       <ExtVolt1>yes</ExtVolt1>
*
*       <ExtVolt2>yes</ExtVolt2>
*
*       <ExtVolt3>no</ExtVolt3>
*
*       <ExtVolt4>yes</ExtVolt4>
*
*       <ExtVolt5>no</ExtVolt5>
*
*       <SBE38>no</SBE38>
*
*       <WETLABS>yes</WETLABS>
*
*       <OPTODE>no</OPTODE>
*
*       <SBE63>no</SBE63>
*
*       <SeaFET>no</SeaFET>
*
*       <GTD>no</GTD>
*
*    </DataChannels>
*
*    <EchoCharacters>yes</EchoCharacters>
*
*    <OutputExecutedTag>yes</OutputExecutedTag>
*
*    <OutputFormat>raw HEX</OutputFormat>
*
* </ConfigurationData>
* <CalibrationCoefficients DeviceType='SBE19plus' SerialNumber='01908188'>
*
*    <Calibration format='TEMP1' id='Main Temperature'>
*
*       <SerialNum>01908188</SerialNum>
*
*       <CalDate>07-May-24</CalDate>
*
*       <TA0>1.249325e-03</TA0>
*
*       <TA1>2.751683e-04</TA1>
*
*       <TA2>-1.314205e-06</TA2>
*
*       <TA3>1.914222e-07</TA3>
*
*       <TOFFSET>0.000000e+00</TOFFSET>
*
*    </Calibration>
*
*    <Calibration format='WBCOND0' id='Main Conductivity'>
*
*       <SerialNum>01908188</SerialNum>
*
*       <CalDate>07-May-24</CalDate>
*
*       <G>-1.014855e+00</G>
*
*       <H>1.444624e-01</H>
*
*       <I>-3.430060e-04</I>
*
*       <J>4.842261e-05</J>
*
*       <CPCOR>-9.570000e-08</CPCOR>
*
*       <CTCOR>3.250000e-06</CTCOR>
*
*       <CSLOPE>1.000000e+00</CSLOPE>
*
*    </Calibration>
*
*    <Calibration format='STRAIN0' id='Main Pressure'>
*
*       <SerialNum>12220741</SerialNum>
*
*       <CalDate>03-Apr-24</CalDate>
*
*       <PA0>7.209200e-02</PA0>
*
*       <PA1>4.836684e-04</PA1>
*
*       <PA2>-3.501227e-12</PA2>
*
*       <PTCA0>5.244614e+05</PTCA0>
*
*       <PTCA1>2.020364e+01</PTCA1>
*
*       <PTCA2>-6.074616e-01</PTCA2>
*
*       <PTCB0>2.522087e+01</PTCB0>
*
*       <PTCB1>5.750000e-04</PTCB1>
*
*       <PTCB2>0.000000e+00</PTCB2>
*
*       <PTEMPA0>-5.770713e+01</PTEMPA0>
*
*       <PTEMPA1>5.343973e+01</PTEMPA1>
*
*       <PTEMPA2>-5.775530e-01</PTEMPA2>
*
*       <POFFSET>7.020000e-01</POFFSET>
*
*       <PRANGE>1.600000e+02</PRANGE>
*
*    </Calibration>
*
*    <Calibration format='VOLT0' id='Volt 0'>
*
*       <OFFSET>-4.657200e-02</OFFSET>
*
*       <SLOPE>1.248989e+00</SLOPE>
*
*    </Calibration>
*
*    <Calibration format='VOLT0' id='Volt 1'>
*
*       <OFFSET>-4.600800e-02</OFFSET>
*
*       <SLOPE>1.249849e+00</SLOPE>
*
*    </Calibration>
*
*    <Calibration format='VOLT0' id='Volt 2'>
*
*       <OFFSET>-4.668000e-02</OFFSET>
*
*       <SLOPE>1.250379e+00</SLOPE>
*
*    </Calibration>
*
*    <Calibration format='VOLT0' id='Volt 3'>
*
*       <OFFSET>-4.643200e-02</OFFSET>
*
*       <SLOPE>1.251002e+00</SLOPE>
*
*    </Calibration>
*
*    <Calibration format='VOLT0' id='Volt 4'>
*
*       <OFFSET>-4.606100e-02</OFFSET>
*
*       <SLOPE>1.249962e+00</SLOPE>
*
*    </Calibration>
*
*    <Calibration format='VOLT0' id='Volt 5'>
*
*       <OFFSET>-4.642700e-02</OFFSET>
*
*       <SLOPE>1.248530e+00</SLOPE>
*
*    </Calibration>
*
*    <Calibration format='FREQ0' id='external frequency channel'>
*
*       <EXTFREQSF>1.000018e+00</EXTFREQSF>
*
*    </Calibration>
*
* </CalibrationCoefficients>
* <EventCounters DeviceType='SBE19plus' SerialNumber='01908188'>
*
*    <EventSummary numEvents='0'/>
*
* </EventCounters></InstrumentState>
* <Headers>
*
* cast   5 31 Jul 2024 20:48:39 samples 4060 to 5073, avg = 1, stop = mag switch
*
# nquan = 16
# nvalues = 1014                        
# units = specified
# name 0 = depFM: Depth [fresh water, m]
# name 1 = dz/dtM: Descent Rate [m/s]
# name 2 = sbeox0Mg/L: Oxygen, SBE 43 [mg/l]
# name 3 = sbeox0PS: Oxygen, SBE 43 [% saturation]
# name 4 = specc: Specific Conductance [uS/cm]
# name 5 = c0uS/cm: Conductivity [uS/cm]
# name 6 = wetCDOM: Fluorescence, WET Labs CDOM [mg/m^3]
# name 7 = flECO-AFL: Fluorescence, WET Labs ECO-AFL/FL [mg/m^3]
# name 8 = flECO-AFL1: Fluorescence, WET Labs ECO-AFL/FL, 2 [mg/m^3]
# name 9 = flECO-AFL2: Fluorescence, WET Labs ECO-AFL/FL, 3 [mg/m^3]
# name 10 = par/sat/log: PAR/Logarithmic, Satlantic
# name 11 = turbWETntu0: Turbidity, WET Labs ECO [NTU]
# name 12 = prdM: Pressure, Strain Gauge [db]
# name 13 = prdE: Pressure, Strain Gauge [psi]
# name 14 = tv290C: Temperature [ITS-90, deg C]
# name 15 = flag:  0.000e+00
# span 0 =     -0.476,      4.238       
# span 1 =     -0.218,      0.164       
# span 2 =     3.8039,     9.6467       
# span 3 =     48.889,    125.692       
# span 4 =   -431.858,    117.986       
# span 5 =-459.886631, 127.650323       
# span 6 =    -4.5000,   306.5400       
# span 7 =    -0.2922,     1.9509       
# span 8 =    -2.1300,     1.1076       
# span 9 =    -2.0304,     4.1877       
# span 10 = 1.1570e-01, 1.7212e-01      
# span 11 =    -0.8685,   337.0322      
# span 12 =     -0.467,      4.156      
# span 13 =     -0.677,      6.028      
# span 14 =    24.4356,    29.1582      
# span 15 = 0.0000e+00, 0.0000e+00      
# interval = seconds: 0.25
# start_time = Jul 31 2024 20:48:39 [Instrument's time stamp, header]
# bad_flag = -9.990e-29
# <Sensors count="10" >
#   <sensor Channel="1" >
#     <!-- Count, Temperature -->
#     <TemperatureSensor SensorID="58" >
#       <SerialNumber>8188</SerialNumber>
#       <CalibrationDate>07-May-24</CalibrationDate>
#       <A0>1.24932504e-003</A0>
#       <A1>2.75168293e-004</A1>
#       <A2>-1.31420465e-006</A2>
#       <A3>1.91422179e-007</A3>
#       <Slope>1.00000000</Slope>
#       <Offset>0.0000</Offset>
#     </TemperatureSensor>
#   </sensor>
#   <sensor Channel="2" >
#     <!-- Frequency 0, Conductivity -->
#     <ConductivitySensor SensorID="3" >
#       <SerialNumber>8188</SerialNumber>
#       <CalibrationDate>07-May-24</CalibrationDate>
#       <UseG_J>1</UseG_J>
#       <!-- Cell const and series R are applicable only for wide range sensors. -->
#       <SeriesR>0.0000</SeriesR>
#       <CellConst>2000.0000</CellConst>
#       <ConductivityType>0</ConductivityType>
#       <Coefficients equation="0" >
#         <A>0.00000000e+000</A>
#         <B>0.00000000e+000</B>
#         <C>0.00000000e+000</C>
#         <D>0.00000000e+000</D>
#         <M>0.0</M>
#         <CPcor>-9.57000000e-008</CPcor>
#       </Coefficients>
#       <Coefficients equation="1" >
#         <G>-1.01485473e+000</G>
#         <H>1.44462400e-001</H>
#         <I>-3.43006030e-004</I>
#         <J>4.84226116e-005</J>
#         <CPcor>-9.57000000e-008</CPcor>
#         <CTcor>3.2500e-006</CTcor>
#         <!-- WBOTC not applicable unless ConductivityType = 1. -->
#         <WBOTC>0.00000000e+000</WBOTC>
#       </Coefficients>
#       <Slope>1.00000000</Slope>
#       <Offset>0.00000</Offset>
#     </ConductivitySensor>
#   </sensor>
#   <sensor Channel="3" >
#     <!-- Count, Pressure, Strain Gauge -->
#     <PressureSensor SensorID="46" >
#       <SerialNumber>8188</SerialNumber>
#       <CalibrationDate>03-Apr-24</CalibrationDate>
#       <PA0>7.20920045e-002</PA0>
#       <PA1>4.83668449e-004</PA1>
#       <PA2>-3.50122678e-012</PA2>
#       <PTEMPA0>-5.77071299e+001</PTEMPA0>
#       <PTEMPA1>5.34397285e+001</PTEMPA1>
#       <PTEMPA2>-5.77553003e-001</PTEMPA2>
#       <PTCA0>5.24461366e+005</PTCA0>
#       <PTCA1>2.02036405e+001</PTCA1>
#       <PTCA2>-6.07461634e-001</PTCA2>
#       <PTCB0>2.52208750e+001</PTCB0>
#       <PTCB1>5.75000000e-004</PTCB1>
#       <PTCB2>0.00000000e+000</PTCB2>
#       <Offset>0.000000</Offset>
#     </PressureSensor>
#   </sensor>
#   <sensor Channel="4" >
#     <!-- A/D voltage 0, Fluorometer, WET Labs ECO-AFL/FL -->
#     <FluoroWetlabECO_AFL_FL_Sensor SensorID="20" >
#       <SerialNumber>FLNTURT-7096</SerialNumber>
#       <CalibrationDate>21-Mar-2024</CalibrationDate>
#       <ScaleFactor>5.00000000e+001</ScaleFactor>
#       <!-- Dark output -->
#       <Vblank>0.0710</Vblank>
#     </FluoroWetlabECO_AFL_FL_Sensor>
#   </sensor>
#   <sensor Channel="5" >
#     <!-- A/D voltage 1, Turbidity Meter, WET Labs, ECO-NTU -->
#     <TurbidityMeter SensorID="67" >
#       <SerialNumber>FLNTURT-7096</SerialNumber>
#       <CalibrationDate>21-Mar-2024</CalibrationDate>
#       <ScaleFactor>198.000000</ScaleFactor>
#       <!-- Dark output -->
#       <DarkVoltage>0.070000</DarkVoltage>
#     </TurbidityMeter>
#   </sensor>
#   <sensor Channel="6" >
#     <!-- A/D voltage 2, Oxygen, SBE 43 -->
#     <OxygenSensor SensorID="38" >
#       <SerialNumber>4269</SerialNumber>
#       <CalibrationDate>08-May-24</CalibrationDate>
#       <Use2007Equation>1</Use2007Equation>
#       <CalibrationCoefficients equation="0" >
#         <!-- Coefficients for Owens-Millard equation. -->
#         <Boc>0.0000</Boc>
#         <Soc>0.0000e+000</Soc>
#         <offset>0.0000</offset>
#         <Pcor>0.00e+000</Pcor>
#         <Tcor>0.0000</Tcor>
#         <Tau>0.0</Tau>
#       </CalibrationCoefficients>
#       <CalibrationCoefficients equation="1" >
#         <!-- Coefficients for Sea-Bird equation - SBE calibration in 2007 and later. -->
#         <Soc>4.3983e-001</Soc>
#         <offset>-0.4978</offset>
#         <A>-4.5504e-003</A>
#         <B> 2.4929e-004</B>
#         <C>-4.1306e-006</C>
#         <D0> 2.5826e+000</D0>
#         <D1> 1.92634e-004</D1>
#         <D2>-4.64803e-002</D2>
#         <E> 3.6000e-002</E>
#         <Tau20> 1.9700</Tau20>
#         <H1>-3.3000e-002</H1>
#         <H2> 5.0000e+003</H2>
#         <H3> 1.4500e+003</H3>
#       </CalibrationCoefficients>
#     </OxygenSensor>
#   </sensor>
#   <sensor Channel="7" >
#     <!-- A/D voltage 3, PAR/Logarithmic, Satlantic -->
#     <PARLog_SatlanticSensor SensorID="76" >
#       <SerialNumber>2209</SerialNumber>
#       <CalibrationDate>14-Jan-2022</CalibrationDate>
#       <a0>9.8861e-001</a0>
#       <a1>8.0845e-001</a1>
#       <Im>1.3589e+000</Im>
#       <Multiplier>1.0000e+000</Multiplier>
#     </PARLog_SatlanticSensor>
#   </sensor>
#   <sensor Channel="8" >
#     <!-- Serial RS-232, Fluorometer, WET Labs ECO-AFL/FL, 2 -->
#     <FluoroWetlabECO_AFL_FL_Sensor SensorID="20" >
#       <SerialNumber>FL3-7350</SerialNumber>
#       <CalibrationDate>10-Mar-2022</CalibrationDate>
#       <ScaleFactor>4.26000000e-002</ScaleFactor>
#       <!-- Dark output -->
#       <Vblank>50.0000</Vblank>
#     </FluoroWetlabECO_AFL_FL_Sensor>
#   </sensor>
#   <sensor Channel="9" >
#     <!-- Serial RS-232, Fluorometer, WET Labs ECO-AFL/FL, 3 -->
#     <FluoroWetlabECO_AFL_FL_Sensor SensorID="20" >
#       <SerialNumber>FL3-7350</SerialNumber>
#       <CalibrationDate>10-Mar-2022</CalibrationDate>
#       <ScaleFactor>4.23000000e-002</ScaleFactor>
#       <!-- Dark output -->
#       <Vblank>48.0000</Vblank>
#     </FluoroWetlabECO_AFL_FL_Sensor>
#   </sensor>
#   <sensor Channel="10" >
#     <!-- Serial RS-232, Fluorometer, WET Labs ECO CDOM -->
#     <FluoroWetlabCDOM_Sensor SensorID="19" >
#       <SerialNumber>FL3-7350</SerialNumber>
#       <CalibrationDate>10-Mar-2022</CalibrationDate>
#       <ScaleFactor>0.090</ScaleFactor>
#       <!-- Dark output -->
#       <Vblank>50.000</Vblank>
#     </FluoroWetlabCDOM_Sensor>
#   </sensor>
# </Sensors>
# datcnv_date = Aug 02 2024 14:31:41, 7.26.7.129 [datcnv_vars = 15]
# datcnv_in = C:\R\Reservoirs\Data\DataNotYetUploadedToEDI\Raw_CTD\RawDownloads\073124_ccr90_S8188005.hex C:\R\Reservoirs\Data\DataNotYetUploadedToEDI\Raw_CTD\RawDownloads\SBE19plusV2_8188_start20240601.xmlcon
# datcnv_skipover = 0
# datcnv_ox_hysteresis_correction = yes
# datcnv_ox_tau_correction = yes
# filter_date = Aug 02 2024 14:33:18, 7.26.7.129
# filter_in = C:\R\Reservoirs\Data\DataNotYetUploadedToEDI\Raw_CTD\RawDownloads\073124_ccr90_S8188005.cnv
# filter_low_pass_tc_A = 0.500
# filter_low_pass_tc_B = 1.000
# filter_low_pass_A_vars = sbeox0Mg/L sbeox0PS specc c0uS/cm tv290C
# filter_low_pass_B_vars = depFM dz/dtM prdM prdE
# alignctd_date = Aug 02 2024 14:33:58, 7.26.7.129
# alignctd_in = C:\R\Reservoirs\Data\DataNotYetUploadedToEDI\Raw_CTD\RawDownloads\073124_ccr90_S8188005.cnv
# alignctd_adv = dz/dtM 1.000, sbeox0PS 1.000, specc 1.000, c0uS/cm 1.000, flECO-AFL 1.000, turbWETntu0 1.000                                                                                                                        
# file_type = ascii
*END*
     -0.457      0.013     7.9384     95.210      6.487   6.512405    -4.5000    -0.2502    -2.1300    -2.0304 1.3517e-01    -0.6268     -0.448     -0.650    24.4356 0.0000e+00
     -0.453      0.016     7.9401     95.247      7.887   7.962599    -4.5000    -0.2846    -2.1300    -2.0304 1.3745e-01    -0.8534     -0.445     -0.645    24.4388 0.0000e+00
     -0.449      0.021     7.9419     95.279     10.192  10.351363    -4.5000    -0.2655    -2.1300    -2.0304 1.1623e-01    -0.8685     -0.441     -0.639    24.4446 0.0000e+00
     -0.444      0.027     7.9435     95.305     13.994  14.293820     3.6900    -0.2579     0.0852     0.1269 1.1686e-01    -0.0678     -0.435     -0.632    24.4547 0.0000e+00
     -0.437      0.035     7.9443     95.326     20.246  20.781623     3.6900    -0.2769     0.0852     0.1269 1.5514e-01    -0.1283     -0.428     -0.622    24.4722 0.0000e+00
     -0.428      0.045     7.9432     95.340     30.565  31.493136     3.6900    -0.2579     0.0852     0.1269 1.1610e-01    -0.1283     -0.420     -0.609    24.5022 0.0000e+00
     -0.417      0.057     7.9386     95.343     46.175  47.774252     3.6900    -0.2769     0.0852     0.1269 1.1617e-01    -0.0376     -0.409     -0.593    24.5530 0.0000e+00
     -0.402      0.073     7.9287     95.333     65.846  68.529886     3.6900     0.1808     0.0852     0.1269 1.1612e-01     1.8507     -0.394     -0.572    24.6384 0.0000e+00
     -0.383      0.090     7.9101     95.315     84.813  88.907882     3.7800     0.1694     0.0852     0.2538 1.2650e-01     1.8507     -0.376     -0.545    24.7817 0.0000e+00
     -0.359      0.109     7.8774     95.301     98.284 103.799891     3.7800     0.1579     0.0852     0.2538 1.2449e-01     1.8356     -0.352     -0.510    25.0213 0.0000e+00
     -0.328      0.127     7.8215     95.310    106.170 112.897507     3.7800     0.1656     0.0852     0.2538 1.1610e-01     1.7903     -0.322     -0.467    25.4173 0.0000e+00
     -0.291      0.142     7.7400     95.367    110.716 118.394731     3.7800     0.4021     0.0852     0.2538 1.2872e-01     0.4156     -0.285     -0.414    25.9898 0.0000e+00
     -0.250      0.154     7.6464     95.497    113.305 121.679501     3.7800     0.4402     0.0852     0.0846 1.7019e-01     0.3703     -0.245     -0.356    26.6508 0.0000e+00
     -0.207      0.161     7.5586     95.718    114.752 123.605770     3.7800     0.4212     0.0852     0.0846 1.7033e-01     0.4156     -0.202     -0.294    27.2804 0.0000e+00
     -0.163      0.164     7.4866     96.038    115.527 124.689228     3.7800     0.4173     0.0852     0.0846 1.7212e-01     0.4609     -0.160     -0.232    27.8150 0.0000e+00
     -0.120      0.164     7.4344     96.450    115.896 125.234811     3.7800     0.4021     0.0852     0.0846 1.5200e-01     0.4911     -0.117     -0.171    28.2362 0.0000e+00
     -0.078      0.161     7.4030     96.936    116.045 125.464047    18.3600     0.4212     0.0852     0.1269 1.2828e-01     0.4609     -0.076     -0.111    28.5466 0.0000e+00
     -0.037      0.155     7.3914     97.465    116.126 125.554116    18.3600     0.4212     0.0852     0.1269 1.2263e-01     0.4458     -0.036     -0.053    28.7625 0.0000e+00
      0.003      0.147     7.3972     98.001    116.216 125.605066    18.3600     0.4440     0.0852     0.1269 1.3986e-01     0.5515      0.003      0.004    28.9042 0.0000e+00
