* Sea-Bird SBE19plus  Data File:
* FileName = C:\DATA\080119_fcr50_0001.hex
* Software version 2.8.0.119 SB_Terminal.dll
* Temperature SN = 7809
* Conductivity SN = 7809
* System UpLoad Time = Aug 01 2019 09:49:36
* <ApplicationData>
* <Seaterm232>
* <SoftwareVersion>2.8.0.119</SoftwareVersion>
* <BuildDate>07-Nov-2018</BuildDate>
* </Seaterm232>
* </ApplicationData>
* cast   1 01 Aug 2019 09:36:36 samples 1 to 1203, avg = 1, stop = mag switch
# nquan = 16
# nvalues = 1017                        
# units = specified
# name 0 = depFM: Depth [fresh water, m]
# name 1 = dz/dtM: Descent Rate [m/s]
# name 2 = sbeox0Mg/L: Oxygen, SBE 43 [mg/l]
# name 3 = sbeox0PS: Oxygen, SBE 43 [% saturation]
# name 4 = specc: Specific Conductance [uS/cm]
# name 5 = c0uS/cm: Conductivity [uS/cm]
# name 6 = flECO-AFL: Fluorescence, WET Labs ECO-AFL/FL [mg/m^3]
# name 7 = ph: pH
# name 8 = orp: Oxidation Reduction Potential [mV]
# name 9 = par/sat/log: PAR/Logarithmic, Satlantic
# name 10 = turbWETntu0: Turbidity, WET Labs ECO [NTU]
# name 11 = prdM: Pressure, Strain Gauge [db]
# name 12 = prdE: Pressure, Strain Gauge [psi]
# name 13 = tv290C: Temperature [ITS-90, deg C]
# name 14 = density00: Density [density, kg/m^3]
# name 15 = flag:  0.000e+00
# span 0 =     -0.552,      9.728       
# span 1 =     -0.261,      4.242       
# span 2 =    -0.0395,     9.6796       
# span 3 =     -0.378,    118.283       
# span 4 =      3.093,    122.609       
# span 5 =   3.007666,  87.878830       
# span 6 =    -2.0332,    28.1239       
# span 7 =      6.569,      9.229       
# span 8 =  -303.6188,   341.4721       
# span 9 = 1.2356e-01, 1.4375e+03       
# span 10 =    -1.8490,    40.7767      
# span 11 =     -0.542,      9.543      
# span 12 =     -0.785,     13.841      
# span 13 =    10.8306,    25.5894      
# span 14 =   996.9110,   999.7148      
# span 15 = 0.0000e+00, 0.0000e+00      
# interval = seconds: 0.25
# start_time = Aug 01 2019 09:36:36 [Instrument's time stamp, header]
# bad_flag = -9.990e-29
# <Sensors count="9" >
#   <sensor Channel="1" >
#     <!-- Count, Temperature -->
#     <TemperatureSensor SensorID="58" >
#       <SerialNumber>7809</SerialNumber>
#       <CalibrationDate>24-Mar-19</CalibrationDate>
#       <A0>1.21792325e-003</A0>
#       <A1>2.81669265e-004</A1>
#       <A2>-1.60333336e-006</A2>
#       <A3>1.98414625e-007</A3>
#       <Slope>1.00000000</Slope>
#       <Offset>0.0000</Offset>
#     </TemperatureSensor>
#   </sensor>
#   <sensor Channel="2" >
#     <!-- Frequency 0, Conductivity -->
#     <ConductivitySensor SensorID="3" >
#       <SerialNumber>7809</SerialNumber>
#       <CalibrationDate>24-Mar-19</CalibrationDate>
#       <UseG_J>1</UseG_J>
#       <!-- Cell const and series R are applicable only for wide range sensors. -->
#       <SeriesR>0.0000</SeriesR>
#       <CellConst>2000.0000</CellConst>
#       <ConductivityType>0</ConductivityType>
#       <Coefficients equation="0" >
#         <A>0.00000000e+000</A>
#         <B>0.00000000e+000</B>
#         <C>0.00000000e+000</C>
#         <D>0.00000000e+000</D>
#         <M>0.0</M>
#         <CPcor>-9.57000000e-008</CPcor>
#       </Coefficients>
#       <Coefficients equation="1" >
#         <G>-1.00589325e+000</G>
#         <H>1.26816302e-001</H>
#         <I>-1.51560448e-004</I>
#         <J>2.67137274e-005</J>
#         <CPcor>-9.57000000e-008</CPcor>
#         <CTcor>3.2500e-006</CTcor>
#         <!-- WBOTC not applicable unless ConductivityType = 1. -->
#         <WBOTC>0.00000000e+000</WBOTC>
#       </Coefficients>
#       <Slope>1.00000000</Slope>
#       <Offset>0.00000</Offset>
#     </ConductivitySensor>
#   </sensor>
#   <sensor Channel="3" >
#     <!-- Count, Pressure, Strain Gauge -->
#     <PressureSensor SensorID="46" >
#       <SerialNumber>7809</SerialNumber>
#       <CalibrationDate>11-Mar-19</CalibrationDate>
#       <PA0>4.56561833e-002</PA0>
#       <PA1>4.85095118e-004</PA1>
#       <PA2>-2.88327090e-012</PA2>
#       <PTEMPA0>-5.48784562e+001</PTEMPA0>
#       <PTEMPA1>5.53756816e+001</PTEMPA1>
#       <PTEMPA2>-5.86727098e-001</PTEMPA2>
#       <PTCA0>5.25246745e+005</PTCA0>
#       <PTCA1>1.22304214e+001</PTCA1>
#       <PTCA2>-3.56745036e-001</PTCA2>
#       <PTCB0>2.51668750e+001</PTCB0>
#       <PTCB1>3.75000000e-004</PTCB1>
#       <PTCB2>0.00000000e+000</PTCB2>
#       <Offset>0.000000</Offset>
#     </PressureSensor>
#   </sensor>
#   <sensor Channel="4" >
#     <!-- A/D voltage 0, Oxygen, SBE 43 -->
#     <OxygenSensor SensorID="38" >
#       <SerialNumber>0434</SerialNumber>
#       <CalibrationDate>13-Apr-19</CalibrationDate>
#       <Use2007Equation>1</Use2007Equation>
#       <CalibrationCoefficients equation="0" >
#         <!-- Coefficients for Owens-Millard equation. -->
#         <Boc>0.0000</Boc>
#         <Soc>0.0000e+000</Soc>
#         <offset>0.0000</offset>
#         <Pcor>0.00e+000</Pcor>
#         <Tcor>0.0000</Tcor>
#         <Tau>0.0</Tau>
#       </CalibrationCoefficients>
#       <CalibrationCoefficients equation="1" >
#         <!-- Coefficients for Sea-Bird equation - SBE calibration in 2007 and later. -->
#         <Soc>4.2007e-001</Soc>
#         <offset>-0.6109</offset>
#         <A>-4.3656e-003</A>
#         <B> 1.7017e-004</B>
#         <C>-2.5341e-006</C>
#         <D0> 2.5826e+000</D0>
#         <D1> 1.92634e-004</D1>
#         <D2>-4.64803e-002</D2>
#         <E> 3.6000e-002</E>
#         <Tau20> 1.1800</Tau20>
#         <H1>-3.3000e-002</H1>
#         <H2> 5.0000e+003</H2>
#         <H3> 1.4500e+003</H3>
#       </CalibrationCoefficients>
#     </OxygenSensor>
#   </sensor>
#   <sensor Channel="5" >
#     <!-- A/D voltage 1, PAR/Logarithmic, Satlantic -->
#     <PARLog_SatlanticSensor SensorID="76" >
#       <SerialNumber>1122</SerialNumber>
#       <CalibrationDate>08-May-2019</CalibrationDate>
#       <a0>9.7456e-001</a0>
#       <a1>8.1640e-001</a1>
#       <Im>1.3589e+000</Im>
#       <Multiplier>1.0000e+000</Multiplier>
#     </PARLog_SatlanticSensor>
#   </sensor>
#   <sensor Channel="6" >
#     <!-- A/D voltage 2, pH -->
#     <pH_Sensor SensorID="43" >
#       <SerialNumber>0363</SerialNumber>
#       <CalibrationDate>15-Apr-19</CalibrationDate>
#       <Slope>4.5952</Slope>
#       <Offset>2.5370</Offset>
#     </pH_Sensor>
#   </sensor>
#   <sensor Channel="7" >
#     <!-- A/D voltage 3, Oxidation Reduction Potential -->
#     <OxidationReductionPotentialSensor SensorID="41" >
#       <SerialNumber>0363</SerialNumber>
#       <CalibrationDate>15-Apr-19</CalibrationDate>
#       <B>2.499480</B>
#       <M>-0.496195</M>
#       <Offset>0.0</Offset>
#     </OxidationReductionPotentialSensor>
#   </sensor>
#   <sensor Channel="8" >
#     <!-- A/D voltage 4, Fluorometer, WET Labs ECO-AFL/FL -->
#     <FluoroWetlabECO_AFL_FL_Sensor SensorID="20" >
#       <SerialNumber>FLNTURT-2496</SerialNumber>
#       <CalibrationDate>08-May-2019</CalibrationDate>
#       <ScaleFactor>5.00000000e+001</ScaleFactor>
#       <!-- Dark output -->
#       <Vblank>0.0550</Vblank>
#     </FluoroWetlabECO_AFL_FL_Sensor>
#   </sensor>
#   <sensor Channel="9" >
#     <!-- A/D voltage 5, Turbidity Meter, WET Labs, ECO-NTU -->
#     <TurbidityMeter SensorID="67" >
#       <SerialNumber>FLNTURT-2496</SerialNumber>
#       <CalibrationDate>08-May-2019</CalibrationDate>
#       <ScaleFactor>189.000000</ScaleFactor>
#       <!-- Dark output -->
#       <DarkVoltage>0.071000</DarkVoltage>
#     </TurbidityMeter>
#   </sensor>
# </Sensors>
# datcnv_date = Aug 01 2019 09:51:50, 7.26.7.129 [datcnv_vars = 15]
# datcnv_in = C:\DATA\080119_fcr50.hex C:\DATA\SBE19plusV2_7809.xmlcon
# datcnv_skipover = 0
# datcnv_ox_hysteresis_correction = yes
# datcnv_ox_tau_correction = yes
# filter_date = Aug 01 2019 09:52:23, 7.26.7.129
# filter_in = C:\DATA\080119_fcr50.cnv
# filter_low_pass_tc_A = 0.030
# filter_low_pass_tc_B = 0.150
# filter_low_pass_A_vars = prdM prdE tv290C density00
# filter_low_pass_B_vars = depFM dz/dtM sbeox0Mg/L sbeox0PS specc c0uS/cm flECO-AFL ph orp par/sat/log turbWETntu0
# alignctd_date = Aug 01 2019 09:52:48, 7.26.7.129
# alignctd_in = C:\DATA\080119_fcr50.cnv
# alignctd_adv = dz/dtM 1.000, sbeox0Mg/L 1.000, sbeox0PS 1.000, specc 1.000, c0uS/cm 1.000, flECO-AFL 1.000, ph 1.000, orp 1.000, turbWETntu0 1.000                                                                                 
# file_type = ascii
*END*
     -0.552 4.1822e-38     8.0445     94.883      3.277   3.185896    -0.1151      6.859    91.0213 2.0608e+02    -0.1965     -0.541     -0.785    23.6135   997.3991 0.0000e+00
     -0.552 4.6005e-37     8.0440     94.876      3.332   3.240588    -0.1165      6.865    54.0092 4.4366e+02    -0.2561     -0.541     -0.784    23.6137   997.3990 0.0000e+00
     -0.552 5.0605e-36     8.0436     94.872      3.161   3.073862    -0.1233      6.870    20.7722 7.2398e+02    -0.3042     -0.541     -0.785    23.6140   997.3990 0.0000e+00
     -0.552 5.5665e-35     8.0424     94.858      3.093   3.007666    -0.1280      6.870    -2.9098 5.8830e+02    -0.2862     -0.541     -0.784    23.6143   997.3988 0.0000e+00
     -0.552 6.1232e-34     8.0414     94.847      3.161   3.073890    -0.1303      6.861    -9.2283 3.0950e+02    -0.2681     -0.541     -0.785    23.6146   997.3988 0.0000e+00
     -0.551 6.7355e-33     8.0416     94.850      3.137   3.050810    -0.1338      6.848    -3.4842 2.0163e+02    -0.2820     -0.540     -0.784    23.6147   997.3989 0.0000e+00
     -0.551 7.4091e-32     8.0426     94.862      3.197   3.108807    -0.1264      6.844   -10.7222 1.6810e+02    -0.2903     -0.541     -0.784    23.6149   997.3987 0.0000e+00
     -0.552 8.1500e-31     8.0434     94.872      3.426   3.331558    -0.1103      6.849   -39.2677 1.5468e+02    -0.3031     -0.542     -0.785    23.6152   997.3986 0.0000e+00
     -0.552 8.9650e-30     8.0442     94.882      3.627   3.526213    -0.1042      6.847   -77.6872 1.4563e+02    -0.3054     -0.542     -0.785    23.6155   997.3986 0.0000e+00
     -0.552 9.8615e-29     8.0452     94.894      3.793   3.688076    -0.1122      6.838   -80.5012 1.4536e+02    -0.2862     -0.541     -0.784    23.6158   997.3985 0.0000e+00
     -0.552 1.0848e-27     8.0458     94.901      4.069   3.957895    -0.1212      6.843   -36.5532 1.5321e+02    -0.2667     -0.541     -0.785    23.6160   997.3985 0.0000e+00
     -0.552 1.1932e-26     8.0460     94.903      4.439   4.317170    -0.1175      6.854   -16.7785 1.6052e+02    -0.1030     -0.541     -0.785    23.6163   997.3984 0.0000e+00
     -0.552 1.3126e-25     8.0451     94.893      4.740   4.610045    -0.1107      6.860   -33.8768 1.5667e+02     0.1856     -0.541     -0.785    23.6164   997.3985 0.0000e+00
     -0.552 1.4438e-24     8.0442     94.883      4.909   4.774080    -0.1181      6.866   -55.8078 1.4810e+02     0.3387     -0.541     -0.785    23.6166   997.3984 0.0000e+00
     -0.552 1.5882e-23     8.0444     94.886      4.980   4.842960    -0.1201      6.868   -75.4498 1.4616e+02     0.3721     -0.541     -0.784    23.6169   997.3984 0.0000e+00
     -0.552 1.7470e-22     8.0444     94.886      4.945   4.809140    -0.1078      6.863   -88.1025 1.6566e+02     0.2293     -0.541     -0.785    23.6169   997.3985 0.0000e+00
     -0.551 1.9217e-21     8.0444     94.886      4.880   4.745401    -0.1092      6.858  -100.0369 3.4986e+02    -0.0768     -0.541     -0.784    23.6170   997.3985 0.0000e+00
     -0.551 2.1139e-20     8.0452     94.896      4.839   4.706011    -0.1189      6.857  -117.1888 5.2240e+02    -0.2166     -0.541     -0.784    23.6170   997.3985 0.0000e+00
     -0.551 2.3253e-19     8.0461     94.907      4.781   4.649744    -0.1212      6.855  -162.3821 3.7683e+02    -0.2155     -0.541     -0.784    23.6172   997.3985 0.0000e+00
     -0.551 2.5578e-18     8.0472     94.921      4.701   4.572056    -0.1193      6.855  -203.7072 2.1110e+02    -0.2933     -0.541     -0.784    23.6173   997.3984 0.0000e+00
     -0.552 2.8136e-17     8.0487     94.938      4.590   4.463776    -0.1128      6.860  -185.7904 1.9679e+02    -0.4356     -0.541     -0.784    23.6176   997.3983 0.0000e+00
     -0.552 3.0950e-16     8.0495     94.948      4.478   4.354479    -0.1127      6.864  -165.2379 1.9061e+02    -0.5269     -0.541     -0.784    23.6177   997.3984 0.0000e+00
     -0.552 3.4045e-15     8.0497     94.950      4.385   4.264485    -0.1175      6.862  -174.4364 1.7075e+02    -0.5125     -0.541     -0.784    23.6179   997.3983 0.0000e+00
     -0.551 3.7449e-14     8.0502     94.956      4.318   4.199488    -0.1195      6.862  -186.1907 1.4184e+02    -0.4583     -0.540     -0.783    23.6180   997.3983 0.0000e+00
     -0.551 4.1194e-13     8.0512     94.968      4.256   4.138944    -0.1275      6.866  -193.0117 1.2008e+02    -0.4611     -0.540     -0.783    23.6180   997.3982 0.0000e+00
     -0.551 4.5313e-12     8.0512     94.969      4.153   4.039413    -0.1283      6.866  -193.6687 1.0703e+02    -0.5138     -0.540     -0.783    23.6183   997.3981 0.0000e+00
     -0.551 4.9845e-11     8.0495     94.949      4.058   3.946621    -0.1118      6.864  -198.7814 1.0102e+02    -0.5380     -0.540     -0.783    23.6184   997.3981 0.0000e+00
     -0.551 5.4829e-10     8.0478     94.930      3.949   3.840808    -0.1011      6.862  -209.5721 1.0571e+02    -0.5246     -0.541     -0.784    23.6187   997.3980 0.0000e+00
     -0.551 6.0312e-09     8.0473     94.925      3.816   3.710578    -0.1033      6.861  -221.0635 1.1629e+02    -0.5155     -0.540     -0.783    23.6186   997.3980 0.0000e+00
     -0.551 6.6343e-08     8.0479     94.932      3.743   3.639397    -0.1116      6.862  -232.9269 1.2185e+02    -0.5266     -0.540     -0.784    23.6191   997.3979 0.0000e+00
     -0.551 7.2977e-07     8.0497     94.953      3.782   3.677215    -0.1231      6.863  -244.5156 1.1877e+02    -0.5601     -0.540     -0.783    23.6194   997.3978 0.0000e+00
     -0.551      0.000     8.0500     94.958      3.830   3.724245    -0.1479      6.860  -256.3854 1.1654e+02    -0.5930     -0.540     -0.783    23.6199   997.3976 0.0000e+00
     -0.551      0.000     8.0500     94.959      3.741   3.637725    -0.4289      6.855  -276.4663 1.6009e+02    -0.7935     -0.541     -0.784    23.6197   997.3977 0.0000e+00
     -0.551      0.001     8.0510     94.977      3.682   3.581628    -0.9537      6.849  -303.6188 2.1175e+02    -1.1816     -0.540     -0.783    23.6208   997.3974 0.0000e+00
     -0.551      0.006     8.0460     94.988      4.101   3.996508    -1.2312      6.906  -266.5971 2.1377e+02    -1.3857     -0.541     -0.784    23.6199   997.3976 0.0000e+00
     -0.551      0.018     8.0210     94.993      8.108   7.956959    -1.1998      7.113   -34.0430 4.7308e+02    -1.3933     -0.540     -0.783    23.6221   997.3971 0.0000e+00
     -0.550      0.038     7.9705     94.990     19.248  19.011511    -0.5832      7.468   257.7308 1.0071e+03    -1.5023     -0.540     -0.783    23.6193   997.3978 0.0000e+00
     -0.546      0.066     7.9150     94.984     32.125  31.886537     0.5708      7.901   341.4721 1.2935e+03    -1.7216     -0.541     -0.784    23.6247   997.3964 0.0000e+00
     -0.531      0.099     7.8738     94.990     38.408  38.287542     1.2048      8.295   307.2731 1.3067e+03    -1.8490     -0.528     -0.766    23.6171   997.3983 0.0000e+00
     -0.500      0.129     7.8454     94.999     38.708  38.728892     1.2654      8.598   293.7896 1.3055e+03    -1.7637     -0.494     -0.717    23.7466   997.3671 0.0000e+00
     -0.454      0.156     7.8247     95.017     37.469  37.604258     1.3468      8.821   285.9063 1.3138e+03    -0.7557     -0.450     -0.652    24.1663   997.2675 0.0000e+00
     -0.398      0.176     7.8102     95.065     36.586  36.814078     2.1546      8.964   280.7883 1.3326e+03    10.0428     -0.388     -0.562    24.5853   997.1684 0.0000e+00
     -0.347      0.186     7.8040     95.160     36.177  36.474688     3.6199      9.044   275.9608 1.3706e+03    29.8611     -0.336     -0.488    24.8517   997.1024 0.0000e+00
     -0.302      0.182     7.8087     95.326     36.016  36.357079     4.4192      9.096   271.2457 1.4057e+03    40.6266     -0.300     -0.436    25.0391   997.0541 0.0000e+00
     -0.254      0.171     7.8243     95.576     35.979  36.344225     4.5012      9.141   268.3467 1.4271e+03    40.7767     -0.250     -0.363    25.1832   997.0168 0.0000e+00
     -0.205      0.157     7.8478     95.891     36.069  36.446240     4.5254      9.181   266.6351 1.4375e+03    31.3487     -0.196     -0.284    25.3183   996.9819 0.0000e+00
     -0.166      0.146     7.8761     96.247     36.444  36.828891     4.5468      9.209   264.6611 1.4310e+03    13.8396     -0.159     -0.229    25.4191   996.9558 0.0000e+00
     -0.138      0.136     7.9061     96.620     36.834  37.225944     4.5522      9.224   262.8054 1.4199e+03     4.2761     -0.135     -0.196    25.4781   996.9405 0.0000e+00
     -0.111      0.125     7.9364     96.989     36.856  37.248178     4.5566      9.229   261.7502 1.4018e+03     3.4152     -0.111     -0.161    25.5066   996.9332 0.0000e+00
     -0.080      0.113     7.9672     97.348     36.651  37.034254     4.6422      9.229   261.2807 1.2336e+03     3.3328     -0.080     -0.115    25.5204   996.9297 0.0000e+00
     -0.045      0.103     7.9968     97.675     36.431  36.797508     4.7984      9.222   261.1727 1.0776e+03     3.3123     -0.043     -0.063    25.5228   996.9293 0.0000e+00
     -0.015      0.092     8.0195     97.915     36.195  36.543760     4.8846      9.210   261.0467 1.2212e+03     3.2989     -0.011     -0.017    25.5255   996.9290 0.0000e+00
      0.007      0.077     8.0340     98.061     35.917  36.251188     4.8961      9.196   259.7563 1.3653e+03     3.3016      0.009      0.012    25.5311   996.9276 0.0000e+00
      0.022      0.060     8.0472     98.203     35.665  35.989293     4.9889      9.183   257.5307 1.2069e+03     3.3452      0.023      0.033    25.5190   996.9307 0.0000e+00
      0.034      0.044     8.0693     98.463     35.534  35.852551     5.1662      9.173   255.9052 8.1434e+02     3.3669      0.034      0.051    25.4973   996.9364 0.0000e+00
      0.041      0.033     8.1031     98.872     35.488  35.803768     5.2626      9.165   255.0736 5.2498e+02     3.3349      0.041      0.060    25.4746   996.9423 0.0000e+00
      0.045      0.028     8.1374     99.294     35.463  35.780281     5.2697      9.157   254.7035 5.5545e+02     3.3189      0.044      0.063    25.4554   996.9472 0.0000e+00
      0.048      0.027     8.1551     99.518     35.438  35.758988     5.2958      9.148   254.4420 6.7986e+02     3.3369      0.046      0.067    25.4470   996.9493 0.0000e+00
      0.053      0.028     8.1419     99.366     35.412  35.736720     5.3521      9.138   253.3745 7.1537e+02     3.3564      0.051      0.075    25.4406   996.9509 0.0000e+00
      0.062      0.029     8.0937     98.787     35.373  35.701462     5.3784      9.131   252.0344 5.9996e+02     3.3582      0.059      0.086    25.4386   996.9515 0.0000e+00
      0.074      0.029     8.0172     97.861     35.320  35.650041     5.3713      9.126   250.9728 4.0035e+02     3.3587      0.071      0.104    25.4423   996.9505 0.0000e+00
      0.084      0.028     7.9365     96.881     35.291  35.622749     5.3785      9.121   249.9177 3.0054e+02     3.3618      0.084      0.122    25.4455   996.9498 0.0000e+00
      0.089      0.025     7.8813     96.212     35.292  35.625349     5.4913      9.115   249.2570 2.5534e+02     3.3631      0.088      0.127    25.4513   996.9483 0.0000e+00
      0.094      0.020     7.8579     95.928     35.283  35.618015     5.6864      9.107   248.9210 2.1558e+02     3.3743      0.092      0.133    25.4586   996.9463 0.0000e+00
