* Sea-Bird SBE19plus  Data File:
* FileName = C:\DATA\080519_fcr50_0005.hex
* Software version 2.8.0.119 SB_Terminal.dll
* Temperature SN = 7809
* Conductivity SN = 7809
* System UpLoad Time = Aug 05 2019 17:59:47
* <ApplicationData>
* <Seaterm232>
* <SoftwareVersion>2.8.0.119</SoftwareVersion>
* <BuildDate>07-Nov-2018</BuildDate>
* </Seaterm232>
* </ApplicationData>
* cast   5 05 Aug 2019 12:01:40 samples 2069 to 2899, avg = 1, stop = mag switch
# nquan = 16
# nvalues = 702                         
# units = specified
# name 0 = depFM: Depth [fresh water, m]
# name 1 = dz/dtM: Descent Rate [m/s]
# name 2 = sbeox0Mg/L: Oxygen, SBE 43 [mg/l]
# name 3 = sbeox0PS: Oxygen, SBE 43 [% saturation]
# name 4 = specc: Specific Conductance [uS/cm]
# name 5 = c0uS/cm: Conductivity [uS/cm]
# name 6 = flECO-AFL: Fluorescence, WET Labs ECO-AFL/FL [mg/m^3]
# name 7 = ph: pH
# name 8 = orp: Oxidation Reduction Potential [mV]
# name 9 = par/sat/log: PAR/Logarithmic, Satlantic
# name 10 = turbWETntu0: Turbidity, WET Labs ECO [NTU]
# name 11 = prdM: Pressure, Strain Gauge [db]
# name 12 = prdE: Pressure, Strain Gauge [psi]
# name 13 = tv290C: Temperature [ITS-90, deg C]
# name 14 = density00: Density [density, kg/m^3]
# name 15 = flag:  0.000e+00
# span 0 =     -0.576,      9.566       
# span 1 =     -0.001,      0.119       
# span 2 =    -0.0492,     8.8950       
# span 3 =     -0.447,    109.816       
# span 4 =      1.266,    230.310       
# span 5 =   1.188185, 165.525963       
# span 6 =    -0.1550,     8.5720       
# span 7 =      6.727,      8.494       
# span 8 =  -493.7746,   338.8799       
# span 9 = 1.2352e-01, 7.9265e+02       
# span 10 =    -0.5533,    55.5023      
# span 11 =     -0.566,      9.382      
# span 12 =     -0.820,     13.608      
# span 13 =    10.7940,    26.6431      
# span 14 =   996.6303,   999.7457      
# span 15 = 0.0000e+00, 0.0000e+00      
# interval = seconds: 0.25
# start_time = Aug 05 2019 12:01:40 [Instrument's time stamp, header]
# bad_flag = -9.990e-29
# <Sensors count="9" >
#   <sensor Channel="1" >
#     <!-- Count, Temperature -->
#     <TemperatureSensor SensorID="58" >
#       <SerialNumber>7809</SerialNumber>
#       <CalibrationDate>24-Mar-19</CalibrationDate>
#       <A0>1.21792325e-003</A0>
#       <A1>2.81669265e-004</A1>
#       <A2>-1.60333336e-006</A2>
#       <A3>1.98414625e-007</A3>
#       <Slope>1.00000000</Slope>
#       <Offset>0.0000</Offset>
#     </TemperatureSensor>
#   </sensor>
#   <sensor Channel="2" >
#     <!-- Frequency 0, Conductivity -->
#     <ConductivitySensor SensorID="3" >
#       <SerialNumber>7809</SerialNumber>
#       <CalibrationDate>24-Mar-19</CalibrationDate>
#       <UseG_J>1</UseG_J>
#       <!-- Cell const and series R are applicable only for wide range sensors. -->
#       <SeriesR>0.0000</SeriesR>
#       <CellConst>2000.0000</CellConst>
#       <ConductivityType>0</ConductivityType>
#       <Coefficients equation="0" >
#         <A>0.00000000e+000</A>
#         <B>0.00000000e+000</B>
#         <C>0.00000000e+000</C>
#         <D>0.00000000e+000</D>
#         <M>0.0</M>
#         <CPcor>-9.57000000e-008</CPcor>
#       </Coefficients>
#       <Coefficients equation="1" >
#         <G>-1.00589325e+000</G>
#         <H>1.26816302e-001</H>
#         <I>-1.51560448e-004</I>
#         <J>2.67137274e-005</J>
#         <CPcor>-9.57000000e-008</CPcor>
#         <CTcor>3.2500e-006</CTcor>
#         <!-- WBOTC not applicable unless ConductivityType = 1. -->
#         <WBOTC>0.00000000e+000</WBOTC>
#       </Coefficients>
#       <Slope>1.00000000</Slope>
#       <Offset>0.00000</Offset>
#     </ConductivitySensor>
#   </sensor>
#   <sensor Channel="3" >
#     <!-- Count, Pressure, Strain Gauge -->
#     <PressureSensor SensorID="46" >
#       <SerialNumber>7809</SerialNumber>
#       <CalibrationDate>11-Mar-19</CalibrationDate>
#       <PA0>4.56561833e-002</PA0>
#       <PA1>4.85095118e-004</PA1>
#       <PA2>-2.88327090e-012</PA2>
#       <PTEMPA0>-5.48784562e+001</PTEMPA0>
#       <PTEMPA1>5.53756816e+001</PTEMPA1>
#       <PTEMPA2>-5.86727098e-001</PTEMPA2>
#       <PTCA0>5.25246745e+005</PTCA0>
#       <PTCA1>1.22304214e+001</PTCA1>
#       <PTCA2>-3.56745036e-001</PTCA2>
#       <PTCB0>2.51668750e+001</PTCB0>
#       <PTCB1>3.75000000e-004</PTCB1>
#       <PTCB2>0.00000000e+000</PTCB2>
#       <Offset>0.000000</Offset>
#     </PressureSensor>
#   </sensor>
#   <sensor Channel="4" >
#     <!-- A/D voltage 0, Oxygen, SBE 43 -->
#     <OxygenSensor SensorID="38" >
#       <SerialNumber>0434</SerialNumber>
#       <CalibrationDate>13-Apr-19</CalibrationDate>
#       <Use2007Equation>1</Use2007Equation>
#       <CalibrationCoefficients equation="0" >
#         <!-- Coefficients for Owens-Millard equation. -->
#         <Boc>0.0000</Boc>
#         <Soc>0.0000e+000</Soc>
#         <offset>0.0000</offset>
#         <Pcor>0.00e+000</Pcor>
#         <Tcor>0.0000</Tcor>
#         <Tau>0.0</Tau>
#       </CalibrationCoefficients>
#       <CalibrationCoefficients equation="1" >
#         <!-- Coefficients for Sea-Bird equation - SBE calibration in 2007 and later. -->
#         <Soc>4.2007e-001</Soc>
#         <offset>-0.6109</offset>
#         <A>-4.3656e-003</A>
#         <B> 1.7017e-004</B>
#         <C>-2.5341e-006</C>
#         <D0> 2.5826e+000</D0>
#         <D1> 1.92634e-004</D1>
#         <D2>-4.64803e-002</D2>
#         <E> 3.6000e-002</E>
#         <Tau20> 1.1800</Tau20>
#         <H1>-3.3000e-002</H1>
#         <H2> 5.0000e+003</H2>
#         <H3> 1.4500e+003</H3>
#       </CalibrationCoefficients>
#     </OxygenSensor>
#   </sensor>
#   <sensor Channel="5" >
#     <!-- A/D voltage 1, PAR/Logarithmic, Satlantic -->
#     <PARLog_SatlanticSensor SensorID="76" >
#       <SerialNumber>1122</SerialNumber>
#       <CalibrationDate>08-May-2019</CalibrationDate>
#       <a0>9.7456e-001</a0>
#       <a1>8.1640e-001</a1>
#       <Im>1.3589e+000</Im>
#       <Multiplier>1.0000e+000</Multiplier>
#     </PARLog_SatlanticSensor>
#   </sensor>
#   <sensor Channel="6" >
#     <!-- A/D voltage 2, pH -->
#     <pH_Sensor SensorID="43" >
#       <SerialNumber>0363</SerialNumber>
#       <CalibrationDate>15-Apr-19</CalibrationDate>
#       <Slope>4.5952</Slope>
#       <Offset>2.5370</Offset>
#     </pH_Sensor>
#   </sensor>
#   <sensor Channel="7" >
#     <!-- A/D voltage 3, Oxidation Reduction Potential -->
#     <OxidationReductionPotentialSensor SensorID="41" >
#       <SerialNumber>0363</SerialNumber>
#       <CalibrationDate>15-Apr-19</CalibrationDate>
#       <B>2.499480</B>
#       <M>-0.496195</M>
#       <Offset>0.0</Offset>
#     </OxidationReductionPotentialSensor>
#   </sensor>
#   <sensor Channel="8" >
#     <!-- A/D voltage 4, Fluorometer, WET Labs ECO-AFL/FL -->
#     <FluoroWetlabECO_AFL_FL_Sensor SensorID="20" >
#       <SerialNumber>FLNTURT-2496</SerialNumber>
#       <CalibrationDate>08-May-2019</CalibrationDate>
#       <ScaleFactor>5.00000000e+001</ScaleFactor>
#       <!-- Dark output -->
#       <Vblank>0.0550</Vblank>
#     </FluoroWetlabECO_AFL_FL_Sensor>
#   </sensor>
#   <sensor Channel="9" >
#     <!-- A/D voltage 5, Turbidity Meter, WET Labs, ECO-NTU -->
#     <TurbidityMeter SensorID="67" >
#       <SerialNumber>FLNTURT-2496</SerialNumber>
#       <CalibrationDate>08-May-2019</CalibrationDate>
#       <ScaleFactor>189.000000</ScaleFactor>
#       <!-- Dark output -->
#       <DarkVoltage>0.071000</DarkVoltage>
#     </TurbidityMeter>
#   </sensor>
# </Sensors>
# datcnv_date = Aug 05 2019 18:02:47, 7.26.7.129 [datcnv_vars = 15]
# datcnv_in = C:\DATA\080519_fcr50a.hex C:\DATA\SBE19plusV2_7809.xmlcon
# datcnv_skipover = 0
# datcnv_ox_hysteresis_correction = yes
# datcnv_ox_tau_correction = yes
# filter_date = Aug 05 2019 18:03:10, 7.26.7.129
# filter_in = C:\DATA\080519_fcr50a.cnv
# filter_low_pass_tc_A = 0.030
# filter_low_pass_tc_B = 0.150
# filter_low_pass_A_vars = prdM prdE tv290C density00
# filter_low_pass_B_vars = depFM dz/dtM sbeox0Mg/L sbeox0PS specc c0uS/cm flECO-AFL ph orp par/sat/log turbWETntu0
# alignctd_date = Aug 05 2019 18:03:31, 7.26.7.129
# alignctd_in = C:\DATA\080519_fcr50a.cnv
# alignctd_adv = dz/dtM 1.000, sbeox0Mg/L 1.000, sbeox0PS 1.000, specc 1.000, c0uS/cm 1.000, flECO-AFL 1.000, ph 1.000, orp 1.000, turbWETntu0 1.000                                                                                 
# file_type = ascii
*END*
     -0.573 -3.081e-10     7.5331     86.020      1.293   1.213207    -0.1441      7.106   338.8799 1.2485e+02    -0.5469     -0.562     -0.816    21.9118   997.7974 0.0000e+00
     -0.573 -3.387e-09     7.5314     86.001      1.300   1.219724    -0.1550      7.111   320.9338 1.2585e+02    -0.5533     -0.562     -0.816    21.9125   997.7973 0.0000e+00
     -0.573 -3.726e-08     7.5303     85.989      1.345   1.262318    -0.1485      7.123   304.7211 1.2474e+02    -0.4968     -0.562     -0.815    21.9135   997.7971 0.0000e+00
     -0.573 -4.098e-07     7.5302     85.988      1.369   1.284678    -0.1348      7.134   285.0770 1.2129e+02    -0.3886     -0.562     -0.815    21.9140   997.7970 0.0000e+00
     -0.573     -0.000     7.5298     85.984      1.318   1.236623    -0.1281      7.140   263.5842 1.1921e+02    -0.3264     -0.563     -0.816    21.9143   997.7969 0.0000e+00
     -0.573     -0.000     7.5292     85.978      1.266   1.188185    -0.1279      7.142   243.9491 1.1959e+02    -0.3029     -0.562     -0.816    21.9146   997.7968 0.0000e+00
     -0.574     -0.001     7.5302     85.989      1.353   1.269257    -0.1332      7.140   231.9656 1.1990e+02    -0.2669     -0.563     -0.816    21.9151   997.7967 0.0000e+00
     -0.574     -0.001     7.5319     86.009      1.485   1.393170    -0.1315      7.137   226.4148 1.1834e+02    -0.2521     -0.563     -0.816    21.9154   997.7966 0.0000e+00
     -0.574     -0.001     7.5324     86.014      1.580   1.482541    -0.1243      7.132   215.6388 1.1510e+02    -0.2871     -0.563     -0.816    21.9157   997.7966 0.0000e+00
     -0.574     -0.001     7.5330     86.022      1.694   1.589489    -0.1327      7.128   200.1030 1.1385e+02    -0.3306     -0.563     -0.817    21.9158   997.7965 0.0000e+00
     -0.574     -0.001     7.5343     86.037      1.715   1.609106    -0.1384      7.126   185.6131 1.2096e+02    -0.3181     -0.563     -0.817    21.9159   997.7965 0.0000e+00
     -0.574     -0.001     7.5341     86.035      1.630   1.529632    -0.1238      7.124   172.9439 1.3462e+02    -0.1693     -0.563     -0.817    21.9161   997.7965 0.0000e+00
     -0.575     -0.001     7.5323     86.014      1.682   1.579018    -0.1206      7.121   161.8684 1.4691e+02     0.0584     -0.564     -0.817    21.9162   997.7965 0.0000e+00
     -0.575     -0.001     7.5304     85.994      1.810   1.699336    -0.1339      7.116   151.1622 1.6419e+02     0.1742     -0.565     -0.819    21.9165   997.7964 0.0000e+00
     -0.575     -0.001     7.5288     85.975      1.830   1.717132    -0.1369      7.112   141.2372 1.9401e+02     0.1829     -0.564     -0.818    21.9166   997.7964 0.0000e+00
     -0.575     -0.001     7.5275     85.960      1.777   1.667471    -0.1313      7.109   132.2920 2.2472e+02     0.1303     -0.564     -0.818    21.9167   997.7963 0.0000e+00
     -0.576     -0.001     7.5265     85.948      1.711   1.605788    -0.1265      7.107   123.6257 2.4234e+02    -0.0035     -0.565     -0.819    21.9170   997.7963 0.0000e+00
     -0.576     -0.001     7.5246     85.928      1.643   1.541591    -0.1228      7.104   115.6092 2.4927e+02    -0.0907     -0.565     -0.819    21.9172   997.7963 0.0000e+00
     -0.576     -0.001     7.5232     85.916      1.625   1.524894    -0.1206      7.103   108.4134 2.5972e+02    -0.0718     -0.565     -0.819    21.9175   997.7962 0.0000e+00
     -0.576      0.000     7.5212     85.918      1.630   1.530626    -0.1174      7.105   101.4095 2.8073e+02    -0.1356     -0.565     -0.819    21.9173   997.7962 0.0000e+00
     -0.576      0.004     7.4981     85.904      1.576   1.484167    -0.1198      7.107    95.0245 3.0733e+02    -0.3053     -0.565     -0.820    21.9177   997.7962 0.0000e+00
     -0.576      0.008     7.4205     85.863      1.544   1.470071    -0.1230      7.109    88.6023 3.3792e+02    -0.3540     -0.566     -0.820    21.9175   997.7961 0.0000e+00
     -0.576      0.009     7.3008     85.798      1.535   1.486943    -0.1216      7.106    68.5853 3.7339e+02    -0.2976     -0.565     -0.820    21.9184   997.7960 0.0000e+00
     -0.572      0.012     7.2021     85.735      1.970   1.941644    -0.1197      7.053   -98.0435 4.0415e+02    -0.2791     -0.565     -0.819    21.9176   997.7960 0.0000e+00
     -0.562      0.020     7.1438     85.695      6.168   6.144131    -0.1185      7.021  -381.9450 4.2053e+02    -0.2612     -0.549     -0.796    21.9292   997.7939 0.0000e+00
     -0.559      0.035     7.0969     85.666     15.336  15.345612    -0.1235      7.192  -493.7746 4.2673e+02    -0.1798     -0.541     -0.785    22.4448   997.6755 0.0000e+00
     -0.563      0.053     7.0520     85.630     25.266  25.395609    -0.1282      7.522  -326.2344 4.3762e+02    -0.0821     -0.559     -0.810    23.5345   997.4177 0.0000e+00
     -0.554      0.070     7.0177     85.602     32.363  32.658301    -0.1232      7.831   -39.8472 4.6783e+02    -0.0291     -0.552     -0.802    24.2495   997.2425 0.0000e+00
     -0.525      0.086     6.9937     85.595     35.219  35.653434    -0.1155      8.056   118.5999 5.1394e+02     0.0344     -0.517     -0.750    24.5079   997.1782 0.0000e+00
     -0.488      0.101     6.9763     85.592     35.569  36.101471    -0.1213      8.199   141.5815 5.5027e+02     0.1279     -0.477     -0.691    24.8561   997.0933 0.0000e+00
     -0.456      0.110     6.9639     85.568     35.706  36.298456    -0.1319      8.293   150.6060 5.6328e+02     0.2823     -0.445     -0.646    25.2181   997.0035 0.0000e+00
     -0.428      0.110     6.9535     85.528     35.814  36.448479    -0.0879      8.360   157.1610 5.6066e+02     1.5735     -0.421     -0.610    25.4453   996.9473 0.0000e+00
     -0.400      0.106     6.9420     85.497     35.895  36.582543     0.3582      8.406   161.9867 5.5051e+02    15.6411     -0.391     -0.568    25.6167   996.9031 0.0000e+00
     -0.375      0.105     6.9275     85.458     35.898  36.650052     1.1532      8.435   165.6753 5.4367e+02    41.4466     -0.365     -0.531    25.7669   996.8635 0.0000e+00
     -0.354      0.108     6.9138     85.440     35.811  36.630104     1.5816      8.449   167.2588 5.4975e+02    55.4389     -0.348     -0.507    25.8337   996.8462 0.0000e+00
     -0.331      0.113     6.9057     85.480     35.651  36.531875     1.6531      8.452   165.7305 5.8517e+02    55.5023     -0.329     -0.477    25.8700   996.8366 0.0000e+00
     -0.300      0.117     6.9018     85.555     35.420  36.351073     2.0711      8.457   164.0602 6.4709e+02    42.3111     -0.296     -0.429    25.9451   996.8170 0.0000e+00
     -0.264      0.119     6.9004     85.651     35.181  36.157853     2.8198      8.467   164.4436 6.9312e+02    17.9234     -0.257     -0.373    26.0367   996.7928 0.0000e+00
     -0.228      0.115     6.9025     85.778     35.019  36.036395     3.2236      8.479   166.5812 7.0741e+02     4.6215     -0.222     -0.322    26.1418   996.7649 0.0000e+00
     -0.196      0.104     6.9105     85.939     34.919  35.961601     3.2695      8.489   169.5145 7.0906e+02     3.4245     -0.190     -0.277    26.2333   996.7406 0.0000e+00
     -0.168      0.086     6.9256     86.128     34.847  35.888280     3.3650      8.493   171.5169 7.1107e+02     3.2540     -0.163     -0.236    26.3100   996.7201 0.0000e+00
     -0.148      0.066     6.9446     86.331     34.822  35.848040     3.5296      8.494   172.8954 7.1563e+02     3.1174     -0.142     -0.206    26.3845   996.7000 0.0000e+00
     -0.136      0.046     6.9608     86.507     34.841  35.855842     3.6122      8.493   174.0503 7.2031e+02     3.0506     -0.131     -0.191    26.4524   996.6817 0.0000e+00
     -0.130      0.030     6.9713     86.631     34.844  35.855666     3.6276      8.491   174.8116 7.2416e+02     3.0697     -0.126     -0.183    26.5050   996.6675 0.0000e+00
     -0.128      0.020     6.9783     86.721     34.833  35.845901     3.6461      8.486   177.1965 7.2786e+02     3.0861     -0.123     -0.179    26.4954   996.6701 0.0000e+00
     -0.128      0.015     6.9828     86.780     34.850  35.864718     3.6625      8.480   181.1178 7.3175e+02     3.0852     -0.126     -0.183    26.4602   996.6795 0.0000e+00
     -0.127      0.014     6.9852     86.813     34.938  35.956243     3.6868      8.475   183.5919 7.3511e+02     3.0592     -0.127     -0.184    26.4459   996.6834 0.0000e+00
     -0.122      0.015     6.9861     86.838     35.098  36.127417     3.6972      8.470   184.1384 7.3770e+02     3.0331     -0.120     -0.175    26.4426   996.6843 0.0000e+00
     -0.115      0.015     6.9858     86.852     35.242  36.284150     3.6921      8.466   184.2845 7.3994e+02     3.0643     -0.112     -0.163    26.4481   996.6829 0.0000e+00
     -0.109      0.014     6.9879     86.878     35.347  36.391483     3.6864      8.462   185.0133 7.4164e+02     3.0437     -0.106     -0.154    26.4501   996.6824 0.0000e+00
     -0.105      0.012     7.0033     87.048     35.436  36.473106     3.6714      8.458   186.3252 7.4225e+02     2.9481     -0.102     -0.148    26.4474   996.6831 0.0000e+00
     -0.104      0.007     7.0602     87.736     35.479  36.509378     3.6497      8.454   187.7574 7.4088e+02     2.8916     -0.101     -0.147    26.4578   996.6804 0.0000e+00
     -0.104      0.004     7.1642     89.025     35.484  36.512686     3.6322      8.450   189.1657 7.3846e+02     2.8523     -0.102     -0.148    26.4776   996.6751 0.0000e+00
     -0.104      0.002     7.2682     90.326     35.481  36.513100     3.5899      8.447   190.5335 7.3757e+02     2.8336     -0.101     -0.147    26.4774   996.6752 0.0000e+00
     -0.104      0.001     7.3389     91.221     35.475  36.514385     3.5108      8.444   191.4750 7.3887e+02     2.8616     -0.102     -0.148    26.4562   996.6810 0.0000e+00
     -0.104      0.001     7.3823     91.786     35.478  36.528233     3.4649      8.441   190.1390 7.4149e+02     2.8960     -0.103     -0.149    26.4416   996.6849 0.0000e+00
     -0.103      0.002     7.3981     92.014     35.490  36.553610     3.4679      8.436   178.5100 7.4388e+02     2.8881     -0.101     -0.146    26.4408   996.6851 0.0000e+00
     -0.101      0.002     7.3738     91.741     35.491  36.567340     3.5039      8.431   158.6768 7.4493e+02     2.8975     -0.099     -0.144    26.4477   996.6833 0.0000e+00
     -0.101      0.002     7.3113     90.986     35.481  36.567325     3.5714      8.430   147.1943 7.4538e+02     3.0103     -0.099     -0.144    26.4571   996.6807 0.0000e+00
     -0.101      0.002     7.2246     89.923     35.460  36.553449     3.6244      8.430   145.0751 7.4613e+02     3.1047     -0.100     -0.145    26.4715   996.6768 0.0000e+00
     -0.101      0.001     7.1236     88.678     35.430  36.526517     3.6422      8.429   143.9805 7.4738e+02     3.0889     -0.099     -0.144    26.4936   996.6708 0.0000e+00
     -0.101      0.001     7.0176     87.365     35.397  36.495580     3.6129      8.428   142.3051 7.4843e+02     3.0489     -0.099     -0.143    26.5125   996.6657 0.0000e+00
     -0.100      0.001     6.9149     86.098     35.331  36.433280     3.5574      8.427   140.4775 7.4854e+02     3.0791     -0.098     -0.143    26.5251   996.6623 0.0000e+00
