* Sea-Bird SBE19plus  Data File:
* FileName = C:\DATA\081519_fcr50_0000_0001.hex
* Software version 2.8.0.119 SB_Terminal.dll
* Temperature SN = 7809
* Conductivity SN = 7809
* System UpLoad Time = Aug 15 2019 01:05:53
* <ApplicationData>
* <Seaterm232>
* <SoftwareVersion>2.8.0.119</SoftwareVersion>
* <BuildDate>07-Nov-2018</BuildDate>
* </Seaterm232>
* </ApplicationData>
* cast   1 14 Aug 2019 15:01:52 samples 1 to 931, avg = 1, stop = mag switch
# nquan = 16
# nvalues = 701                         
# units = specified
# name 0 = depFM: Depth [fresh water, m]
# name 1 = dz/dtM: Descent Rate [m/s]
# name 2 = sbeox0Mg/L: Oxygen, SBE 43 [mg/l]
# name 3 = sbeox0PS: Oxygen, SBE 43 [% saturation]
# name 4 = specc: Specific Conductance [uS/cm]
# name 5 = c0uS/cm: Conductivity [uS/cm]
# name 6 = flECO-AFL: Fluorescence, WET Labs ECO-AFL/FL [mg/m^3]
# name 7 = ph: pH
# name 8 = orp: Oxidation Reduction Potential [mV]
# name 9 = par/sat/log: PAR/Logarithmic, Satlantic
# name 10 = turbWETntu0: Turbidity, WET Labs ECO [NTU]
# name 11 = prdM: Pressure, Strain Gauge [db]
# name 12 = prdE: Pressure, Strain Gauge [psi]
# name 13 = tv290C: Temperature [ITS-90, deg C]
# name 14 = density00: Density [density, kg/m^3]
# name 15 = flag:  0.000e+00
# span 0 =     -0.627,      9.610       
# span 1 =     -0.366,      0.292       
# span 2 =     0.1731,    11.3441       
# span 3 =      1.622,    142.455       
# span 4 =      0.917,     69.041       
# span 5 =   1.018065,  53.360324       
# span 6 =    -0.1091,     9.5570       
# span 7 =      6.846,      9.399       
# span 8 =  -873.1131,   834.2145       
# span 9 = 1.2336e-01, 3.3560e+02       
# span 10 =    -0.6013,    45.3643      
# span 11 =     -0.617,      9.425      
# span 12 =     -0.896,     13.669      
# span 13 =    11.7846,    30.5540      
# span 14 =   995.4813,   999.5873      
# span 15 = 0.0000e+00, 0.0000e+00      
# interval = seconds: 0.25
# start_time = Aug 14 2019 15:01:52 [Instrument's time stamp, header]
# bad_flag = -9.990e-29
# <Sensors count="9" >
#   <sensor Channel="1" >
#     <!-- Count, Temperature -->
#     <TemperatureSensor SensorID="58" >
#       <SerialNumber>7809</SerialNumber>
#       <CalibrationDate>24-Mar-19</CalibrationDate>
#       <A0>1.21792325e-003</A0>
#       <A1>2.81669265e-004</A1>
#       <A2>-1.60333336e-006</A2>
#       <A3>1.98414625e-007</A3>
#       <Slope>1.00000000</Slope>
#       <Offset>0.0000</Offset>
#     </TemperatureSensor>
#   </sensor>
#   <sensor Channel="2" >
#     <!-- Frequency 0, Conductivity -->
#     <ConductivitySensor SensorID="3" >
#       <SerialNumber>7809</SerialNumber>
#       <CalibrationDate>24-Mar-19</CalibrationDate>
#       <UseG_J>1</UseG_J>
#       <!-- Cell const and series R are applicable only for wide range sensors. -->
#       <SeriesR>0.0000</SeriesR>
#       <CellConst>2000.0000</CellConst>
#       <ConductivityType>0</ConductivityType>
#       <Coefficients equation="0" >
#         <A>0.00000000e+000</A>
#         <B>0.00000000e+000</B>
#         <C>0.00000000e+000</C>
#         <D>0.00000000e+000</D>
#         <M>0.0</M>
#         <CPcor>-9.57000000e-008</CPcor>
#       </Coefficients>
#       <Coefficients equation="1" >
#         <G>-1.00589325e+000</G>
#         <H>1.26816302e-001</H>
#         <I>-1.51560448e-004</I>
#         <J>2.67137274e-005</J>
#         <CPcor>-9.57000000e-008</CPcor>
#         <CTcor>3.2500e-006</CTcor>
#         <!-- WBOTC not applicable unless ConductivityType = 1. -->
#         <WBOTC>0.00000000e+000</WBOTC>
#       </Coefficients>
#       <Slope>1.00000000</Slope>
#       <Offset>0.00000</Offset>
#     </ConductivitySensor>
#   </sensor>
#   <sensor Channel="3" >
#     <!-- Count, Pressure, Strain Gauge -->
#     <PressureSensor SensorID="46" >
#       <SerialNumber>7809</SerialNumber>
#       <CalibrationDate>11-Mar-19</CalibrationDate>
#       <PA0>4.56561833e-002</PA0>
#       <PA1>4.85095118e-004</PA1>
#       <PA2>-2.88327090e-012</PA2>
#       <PTEMPA0>-5.48784562e+001</PTEMPA0>
#       <PTEMPA1>5.53756816e+001</PTEMPA1>
#       <PTEMPA2>-5.86727098e-001</PTEMPA2>
#       <PTCA0>5.25246745e+005</PTCA0>
#       <PTCA1>1.22304214e+001</PTCA1>
#       <PTCA2>-3.56745036e-001</PTCA2>
#       <PTCB0>2.51668750e+001</PTCB0>
#       <PTCB1>3.75000000e-004</PTCB1>
#       <PTCB2>0.00000000e+000</PTCB2>
#       <Offset>0.000000</Offset>
#     </PressureSensor>
#   </sensor>
#   <sensor Channel="4" >
#     <!-- A/D voltage 0, Oxygen, SBE 43 -->
#     <OxygenSensor SensorID="38" >
#       <SerialNumber>0434</SerialNumber>
#       <CalibrationDate>13-Apr-19</CalibrationDate>
#       <Use2007Equation>1</Use2007Equation>
#       <CalibrationCoefficients equation="0" >
#         <!-- Coefficients for Owens-Millard equation. -->
#         <Boc>0.0000</Boc>
#         <Soc>0.0000e+000</Soc>
#         <offset>0.0000</offset>
#         <Pcor>0.00e+000</Pcor>
#         <Tcor>0.0000</Tcor>
#         <Tau>0.0</Tau>
#       </CalibrationCoefficients>
#       <CalibrationCoefficients equation="1" >
#         <!-- Coefficients for Sea-Bird equation - SBE calibration in 2007 and later. -->
#         <Soc>4.2007e-001</Soc>
#         <offset>-0.6109</offset>
#         <A>-4.3656e-003</A>
#         <B> 1.7017e-004</B>
#         <C>-2.5341e-006</C>
#         <D0> 2.5826e+000</D0>
#         <D1> 1.92634e-004</D1>
#         <D2>-4.64803e-002</D2>
#         <E> 3.6000e-002</E>
#         <Tau20> 1.1800</Tau20>
#         <H1>-3.3000e-002</H1>
#         <H2> 5.0000e+003</H2>
#         <H3> 1.4500e+003</H3>
#       </CalibrationCoefficients>
#     </OxygenSensor>
#   </sensor>
#   <sensor Channel="5" >
#     <!-- A/D voltage 1, PAR/Logarithmic, Satlantic -->
#     <PARLog_SatlanticSensor SensorID="76" >
#       <SerialNumber>1122</SerialNumber>
#       <CalibrationDate>08-May-2019</CalibrationDate>
#       <a0>9.7456e-001</a0>
#       <a1>8.1640e-001</a1>
#       <Im>1.3589e+000</Im>
#       <Multiplier>1.0000e+000</Multiplier>
#     </PARLog_SatlanticSensor>
#   </sensor>
#   <sensor Channel="6" >
#     <!-- A/D voltage 2, pH -->
#     <pH_Sensor SensorID="43" >
#       <SerialNumber>0363</SerialNumber>
#       <CalibrationDate>15-Apr-19</CalibrationDate>
#       <Slope>4.5952</Slope>
#       <Offset>2.5370</Offset>
#     </pH_Sensor>
#   </sensor>
#   <sensor Channel="7" >
#     <!-- A/D voltage 3, Oxidation Reduction Potential -->
#     <OxidationReductionPotentialSensor SensorID="41" >
#       <SerialNumber>0363</SerialNumber>
#       <CalibrationDate>15-Apr-19</CalibrationDate>
#       <B>2.499480</B>
#       <M>-0.496195</M>
#       <Offset>0.0</Offset>
#     </OxidationReductionPotentialSensor>
#   </sensor>
#   <sensor Channel="8" >
#     <!-- A/D voltage 4, Fluorometer, WET Labs ECO-AFL/FL -->
#     <FluoroWetlabECO_AFL_FL_Sensor SensorID="20" >
#       <SerialNumber>FLNTURT-2496</SerialNumber>
#       <CalibrationDate>08-May-2019</CalibrationDate>
#       <ScaleFactor>5.00000000e+001</ScaleFactor>
#       <!-- Dark output -->
#       <Vblank>0.0550</Vblank>
#     </FluoroWetlabECO_AFL_FL_Sensor>
#   </sensor>
#   <sensor Channel="9" >
#     <!-- A/D voltage 5, Turbidity Meter, WET Labs, ECO-NTU -->
#     <TurbidityMeter SensorID="67" >
#       <SerialNumber>FLNTURT-2496</SerialNumber>
#       <CalibrationDate>08-May-2019</CalibrationDate>
#       <ScaleFactor>189.000000</ScaleFactor>
#       <!-- Dark output -->
#       <DarkVoltage>0.071000</DarkVoltage>
#     </TurbidityMeter>
#   </sensor>
# </Sensors>
# datcnv_date = Aug 15 2019 01:14:33, 7.26.7.129 [datcnv_vars = 15]
# datcnv_in = C:\DATA\081419_fcr50_1500.hex C:\DATA\SBE19plusV2_7809.xmlcon
# datcnv_skipover = 0
# datcnv_ox_hysteresis_correction = yes
# datcnv_ox_tau_correction = yes
# filter_date = Aug 15 2019 01:15:00, 7.26.7.129
# filter_in = C:\DATA\081419_fcr50_1500.cnv
# filter_low_pass_tc_A = 0.030
# filter_low_pass_tc_B = 0.150
# filter_low_pass_A_vars = prdM prdE tv290C density00
# filter_low_pass_B_vars = depFM dz/dtM sbeox0Mg/L sbeox0PS specc c0uS/cm flECO-AFL ph orp par/sat/log turbWETntu0
# alignctd_date = Aug 15 2019 01:15:51, 7.26.7.129
# alignctd_in = C:\DATA\081419_fcr50_1500.cnv
# alignctd_adv = dz/dtM 1.000, sbeox0Mg/L 1.000, sbeox0PS 1.000, specc 1.000, c0uS/cm 1.000, flECO-AFL 1.000, ph 1.000, orp 1.000, turbWETntu0 1.000                                                                                 
# file_type = ascii
*END*
     -0.627 3.3704e-15     6.8706     91.763      0.984   1.092413    -0.1004      7.077  -728.4949 3.3456e+02    -0.2725     -0.615     -0.892    30.5452   995.4813 0.0000e+00
     -0.627 3.7074e-14     6.8791     91.870      1.045   1.160880    -0.1083      7.542  -873.1131 3.2681e+02    -0.2873     -0.615     -0.892    30.5506   995.4879 0.0000e+00
     -0.627 4.0782e-13     6.8829     91.915      1.000   1.110931    -0.1080      8.070  -457.6102 3.1398e+02    -0.2789     -0.616     -0.893    30.5540   995.4885 0.0000e+00
     -0.627 4.4860e-12     6.8836     91.919      0.953   1.058723    -0.0969      7.923   315.7416 2.9991e+02    -0.2693     -0.615     -0.892    30.5519   995.4882 0.0000e+00
     -0.627 4.9346e-11     6.8818     91.890      0.990   1.099863    -0.0952      7.364   767.6972 2.9831e+02    -0.3028     -0.616     -0.893    30.5480   995.4899 0.0000e+00
     -0.627 5.4281e-10     6.8772     91.824      1.049   1.164840    -0.1048      7.029   834.2145 3.0011e+02    -0.3234     -0.615     -0.892    30.5441   995.4908 0.0000e+00
     -0.627 5.9709e-09     6.8694     91.715      1.033   1.147410    -0.1087      6.918   789.0900 2.8767e+02    -0.3219     -0.615     -0.892    30.5412   995.4919 0.0000e+00
     -0.627 6.5680e-08     6.8612     91.600      0.972   1.079200    -0.1081      6.878   729.0444 2.5884e+02    -0.3825     -0.615     -0.892    30.5378   995.4928 0.0000e+00
     -0.627 7.2248e-07     6.8549     91.510      0.934   1.037061    -0.1054      6.860   668.1509 2.2990e+02    -0.4985     -0.615     -0.892    30.5345   995.4938 0.0000e+00
     -0.627      0.000     6.8502     91.440      0.917   1.018065    -0.1027      6.851   605.7209 2.1534e+02    -0.5790     -0.615     -0.892    30.5313   995.4948 0.0000e+00
     -0.627      0.000     6.8461     91.378      0.994   1.102959    -0.1010      6.846   522.9667 2.0868e+02    -0.6013     -0.615     -0.892    30.5286   995.4957 0.0000e+00
     -0.627      0.001     6.8418     91.313      1.632   1.810073    -0.1030      6.849   217.6260 2.0289e+02    -0.5710     -0.615     -0.892    30.5233   995.4972 0.0000e+00
     -0.627      0.011     6.8392     91.255      7.942   8.807403    -0.1091      7.052   -87.6592 1.8717e+02    -0.5409     -0.614     -0.890    30.5210   995.4981 0.0000e+00
     -0.627      0.041     6.8460     91.199     21.529  23.826984    -0.1054      7.615    46.5596 1.7348e+02    -0.4995     -0.616     -0.894    30.5155   995.4995 0.0000e+00
     -0.626      0.095     6.8687     91.103     32.412  35.724193    -0.0587      8.277   249.7597 1.8623e+02     0.1264     -0.612     -0.888    30.5146   995.5001 0.0000e+00
     -0.623      0.159     6.9017     90.980     36.048  39.496996     0.4391      8.772   271.5788 2.1824e+02     6.8625     -0.617     -0.896    30.5044   995.5029 0.0000e+00
     -0.590      0.219     6.9416     90.985     36.777  40.058993     1.3525      9.078   275.6131 2.5915e+02    19.1712     -0.609     -0.882    30.5095   995.5019 0.0000e+00
     -0.500      0.266     6.9950     91.287     36.990  40.106593     1.8476      9.248   275.1360 2.9672e+02    25.8571     -0.502     -0.728    30.4730   995.5186 0.0000e+00
     -0.380      0.292     7.0638     91.903     37.078  40.072229     1.9172      9.339   272.9513 3.1959e+02    26.0236     -0.361     -0.523    30.1862   995.6099 0.0000e+00
     -0.278      0.291     7.1413     92.720     37.114  40.024188     2.2370      9.382   271.0513 3.3107e+02    21.0524     -0.262     -0.379    29.7641   995.7379 0.0000e+00
     -0.205      0.260     7.2154     93.564     37.174  40.033450     2.8187      9.398   271.6090 3.3560e+02    11.7962     -0.194     -0.283    29.4269   995.8389 0.0000e+00
     -0.151      0.208     7.2748     94.265     37.225  40.057174     3.1413      9.399   272.5532 3.3305e+02     6.7216     -0.145     -0.210    29.1812   995.9118 0.0000e+00
     -0.111      0.154     7.3178     94.783     37.241  40.057053     3.1732      9.393   270.4214 3.2380e+02     6.2658     -0.102     -0.147    29.0102   995.9623 0.0000e+00
     -0.087      0.116     7.3464     95.129     37.228  40.031954     3.1694      9.387   266.8279 3.1639e+02     6.1864     -0.083     -0.120    28.8989   995.9950 0.0000e+00
     -0.072      0.094     7.3614     95.304     37.213  40.007611     3.1649      9.382   264.9827 3.1282e+02     5.6643     -0.073     -0.106    28.8288   996.0155 0.0000e+00
     -0.056      0.079     7.3658     95.345     37.227  40.016640     3.1702      9.378   264.4582 2.8867e+02     4.7373     -0.055     -0.080    28.7913   996.0264 0.0000e+00
     -0.037      0.065     7.3623     95.286     37.230  40.014150     3.1732      9.373   263.0681 2.4252e+02     4.2530     -0.037     -0.055    28.7736   996.0317 0.0000e+00
     -0.015      0.051     7.3509     95.119     37.205  39.977491     3.1661      9.367   261.5104 2.1389e+02     4.2001     -0.016     -0.023    28.7585   996.0363 0.0000e+00
      0.007      0.042     7.3270     94.778     37.197  39.954286     3.1796      9.358   260.4238 2.0642e+02     4.1306      0.010      0.015    28.7459   996.0399 0.0000e+00
      0.018      0.044     7.3374     94.879     37.242  39.987486     3.2244      9.343   258.6200 2.0485e+02     4.0681      0.026      0.036    28.7388   996.0421 0.0000e+00
      0.011      0.057     7.4769     96.669     37.257  39.997989     3.2478      9.327   257.1660 2.1056e+02     4.0342      0.015      0.021    28.7332   996.0437 0.0000e+00
     -0.000      0.072     7.7240     99.865     37.216  39.954297     3.2377      9.313   257.1267 2.1560e+02     3.9836     -0.012     -0.017    28.7229   996.0466 0.0000e+00
      0.015      0.084     7.9452    102.725     37.227  39.967067     3.2313      9.301   257.2837 2.0756e+02     3.9801     -0.002     -0.003    28.7002   996.0532 0.0000e+00
      0.065      0.092     8.0650    104.270     37.284  40.025427     3.2397      9.289   256.7424 1.8546e+02     4.0901      0.063      0.091    28.6735   996.0612 0.0000e+00
      0.120      0.094     8.0866    104.515     37.296  40.025098     3.2447      9.275   255.6578 1.6605e+02     4.1996      0.130      0.190    28.6681   996.0631 0.0000e+00
      0.150      0.085     8.0388    103.799     37.276  39.963071     3.2395      9.265   254.6662 1.6294e+02     4.2224      0.155      0.226    28.6745   996.0613 0.0000e+00
      0.156      0.063     7.9507    102.508     37.286  39.910225     3.2110      9.257   253.9595 1.6913e+02     4.1366      0.152      0.222    28.6730   996.0618 0.0000e+00
      0.157      0.036     7.8331    100.848     37.328  39.893888     3.1521      9.247   253.3947 1.7297e+02     4.0138      0.153      0.222    28.6728   996.0619 0.0000e+00
      0.160      0.016     7.7048     99.095     37.367  39.892399     3.1171      9.237   253.0853 1.7115e+02     3.9835      0.158      0.229    28.6671   996.0635 0.0000e+00
      0.162      0.007     7.6148     97.869     37.394  39.892162     3.1174      9.229   252.6277 1.6715e+02     3.9993      0.160      0.232    28.6119   996.0795 0.0000e+00
      0.163      0.001     7.5928     97.540     37.412  39.890972     3.1203      9.223   250.7872 1.6783e+02     4.0083      0.159      0.231    28.5076   996.1097 0.0000e+00
      0.165     -0.008     7.6156     97.805     37.411  39.877982     3.1181      9.215   248.2982 1.7328e+02     3.9943      0.161      0.233    28.4201   996.1350 0.0000e+00
      0.168     -0.014     7.6464     98.195     37.398  39.862046     3.1076      9.203   247.0539 1.7890e+02     3.9602      0.165      0.240    28.3668   996.1503 0.0000e+00
      0.165     -0.010     7.6718     98.561     37.347  39.825252     3.1063      9.188   246.6696 1.8393e+02     3.9562      0.169      0.245    28.3304   996.1608 0.0000e+00
      0.149     -0.001     7.6941     98.951     37.236  39.750538     3.1199      9.174   246.2326 1.8382e+02     3.9468      0.150      0.217    28.3030   996.1686 0.0000e+00
      0.131      0.008     7.7177     99.385     37.156  39.720540     3.1412      9.164   244.6951 1.8132e+02     3.9438      0.114      0.166    28.2872   996.1729 0.0000e+00
      0.138      0.017     7.7412     99.796     37.169  39.780046     3.1648      9.156   242.3631 1.7945e+02     3.9862      0.125      0.181    28.2792   996.1752 0.0000e+00
      0.165      0.027     7.7567    100.068     37.251  39.898762     3.1718      9.148   241.0944 1.7413e+02     4.0001      0.170      0.245    28.2933   996.1714 0.0000e+00
      0.184      0.036     7.7655    100.228     37.339  40.013305     3.1734      9.140   240.5410 1.7084e+02     3.9814      0.188      0.272    28.3643   996.1511 0.0000e+00
      0.188      0.038     7.7782    100.410     37.399  40.085815     3.1843      9.132   240.1459 1.6984e+02     3.9565      0.183      0.266    28.4517   996.1259 0.0000e+00
      0.190      0.030     7.7927    100.593     37.452  40.140665     3.1820      9.124   240.0179 1.6588e+02     3.9281      0.183      0.266    28.5133   996.1082 0.0000e+00
      0.197      0.020     7.8006    100.680     37.484  40.168623     3.1718      9.117   239.1653 1.6198e+02     3.9331      0.194      0.281    28.5519   996.0971 0.0000e+00
      0.204      0.015     7.8096    100.779     37.493  40.169908     3.1737      9.110   237.5798 1.6189e+02     3.9525      0.202      0.292    28.5786   996.0894 0.0000e+00
      0.207      0.013     7.8342    101.075     37.489  40.156194     3.1876      9.104   236.4205 1.6292e+02     3.9335      0.202      0.294    28.5909   996.0859 0.0000e+00
      0.209      0.011     7.8731    101.553     37.474  40.129763     3.2101      9.096   235.9904 1.6312e+02     3.8662      0.205      0.298    28.5835   996.0880 0.0000e+00
      0.211      0.007     7.9137    102.047     37.461  40.104252     3.2285      9.088   235.9068 1.6307e+02     3.7942      0.207      0.301    28.5733   996.0910 0.0000e+00
      0.212      0.005     7.9466    102.436     37.472  40.101639     3.2366      9.082   235.9251 1.6422e+02     3.7504      0.208      0.301    28.5642   996.0936 0.0000e+00
      0.213      0.004     7.9719    102.723     37.484  40.098150     3.2387      9.076   236.0399 1.6722e+02     3.7954      0.209      0.303    28.5519   996.0972 0.0000e+00
      0.214      0.003     7.9942    102.973     37.464  40.062038     3.2450      9.070   236.0900 1.6766e+02     3.9132      0.209      0.304    28.5385   996.1010 0.0000e+00
      0.215      0.003     8.0165    103.223     37.464  40.045880     3.2520      9.063   235.8431 1.6458e+02     3.9618      0.211      0.306    28.5228   996.1055 0.0000e+00
      0.215      0.003     8.0391    103.476     37.463  40.029732     3.2448      9.058   235.4638 1.6050e+02     3.9578      0.211      0.306    28.5027   996.1114 0.0000e+00
      0.216      0.002     8.0611    103.726     37.443  39.993734     3.2360      9.052   235.2888 1.6025e+02     3.9627      0.212      0.307    28.4801   996.1179 0.0000e+00
      0.217      0.002     8.0805    103.949     37.451  39.991503     3.2329      9.045   235.2771 1.6107e+02     3.9561      0.213      0.308    28.4596   996.1238 0.0000e+00
