* Sea-Bird SBE19plus  Data File:
* FileName = C:\DATA\081519_fcr50_0000_0004.hex
* Software version 2.8.0.119 SB_Terminal.dll
* Temperature SN = 7809
* Conductivity SN = 7809
* System UpLoad Time = Aug 15 2019 01:07:29
* <ApplicationData>
* <Seaterm232>
* <SoftwareVersion>2.8.0.119</SoftwareVersion>
* <BuildDate>07-Nov-2018</BuildDate>
* </Seaterm232>
* </ApplicationData>
* cast   4 15 Aug 2019 00:01:10 samples 3688 to 4549, avg = 1, stop = mag switch
# nquan = 16
# nvalues = 741                         
# units = specified
# name 0 = depFM: Depth [fresh water, m]
# name 1 = dz/dtM: Descent Rate [m/s]
# name 2 = sbeox0Mg/L: Oxygen, SBE 43 [mg/l]
# name 3 = sbeox0PS: Oxygen, SBE 43 [% saturation]
# name 4 = specc: Specific Conductance [uS/cm]
# name 5 = c0uS/cm: Conductivity [uS/cm]
# name 6 = flECO-AFL: Fluorescence, WET Labs ECO-AFL/FL [mg/m^3]
# name 7 = ph: pH
# name 8 = orp: Oxidation Reduction Potential [mV]
# name 9 = par/sat/log: PAR/Logarithmic, Satlantic
# name 10 = turbWETntu0: Turbidity, WET Labs ECO [NTU]
# name 11 = prdM: Pressure, Strain Gauge [db]
# name 12 = prdE: Pressure, Strain Gauge [psi]
# name 13 = tv290C: Temperature [ITS-90, deg C]
# name 14 = density00: Density [density, kg/m^3]
# name 15 = flag:  0.000e+00
# span 0 =     -0.612,      9.513       
# span 1 =     -0.002,      0.212       
# span 2 =     0.1238,    10.9711       
# span 3 =      1.270,    134.846       
# span 4 =      0.839,     67.958       
# span 5 =   0.784811,  52.215565       
# span 6 =    -0.1383,     9.0066       
# span 7 =      6.830,      9.362       
# span 8 =   166.3495,   371.7802       
# span 9 = 1.2357e-01, 5.4079e-01       
# span 10 =    -0.5768,    61.3364      
# span 11 =     -0.600,      9.330      
# span 12 =     -0.871,     13.531      
# span 13 =    11.8031,    27.6815      
# span 14 =   996.3462,   999.5853      
# span 15 = 0.0000e+00, 0.0000e+00      
# interval = seconds: 0.25
# start_time = Aug 15 2019 00:01:10 [Instrument's time stamp, header]
# bad_flag = -9.990e-29
# <Sensors count="9" >
#   <sensor Channel="1" >
#     <!-- Count, Temperature -->
#     <TemperatureSensor SensorID="58" >
#       <SerialNumber>7809</SerialNumber>
#       <CalibrationDate>24-Mar-19</CalibrationDate>
#       <A0>1.21792325e-003</A0>
#       <A1>2.81669265e-004</A1>
#       <A2>-1.60333336e-006</A2>
#       <A3>1.98414625e-007</A3>
#       <Slope>1.00000000</Slope>
#       <Offset>0.0000</Offset>
#     </TemperatureSensor>
#   </sensor>
#   <sensor Channel="2" >
#     <!-- Frequency 0, Conductivity -->
#     <ConductivitySensor SensorID="3" >
#       <SerialNumber>7809</SerialNumber>
#       <CalibrationDate>24-Mar-19</CalibrationDate>
#       <UseG_J>1</UseG_J>
#       <!-- Cell const and series R are applicable only for wide range sensors. -->
#       <SeriesR>0.0000</SeriesR>
#       <CellConst>2000.0000</CellConst>
#       <ConductivityType>0</ConductivityType>
#       <Coefficients equation="0" >
#         <A>0.00000000e+000</A>
#         <B>0.00000000e+000</B>
#         <C>0.00000000e+000</C>
#         <D>0.00000000e+000</D>
#         <M>0.0</M>
#         <CPcor>-9.57000000e-008</CPcor>
#       </Coefficients>
#       <Coefficients equation="1" >
#         <G>-1.00589325e+000</G>
#         <H>1.26816302e-001</H>
#         <I>-1.51560448e-004</I>
#         <J>2.67137274e-005</J>
#         <CPcor>-9.57000000e-008</CPcor>
#         <CTcor>3.2500e-006</CTcor>
#         <!-- WBOTC not applicable unless ConductivityType = 1. -->
#         <WBOTC>0.00000000e+000</WBOTC>
#       </Coefficients>
#       <Slope>1.00000000</Slope>
#       <Offset>0.00000</Offset>
#     </ConductivitySensor>
#   </sensor>
#   <sensor Channel="3" >
#     <!-- Count, Pressure, Strain Gauge -->
#     <PressureSensor SensorID="46" >
#       <SerialNumber>7809</SerialNumber>
#       <CalibrationDate>11-Mar-19</CalibrationDate>
#       <PA0>4.56561833e-002</PA0>
#       <PA1>4.85095118e-004</PA1>
#       <PA2>-2.88327090e-012</PA2>
#       <PTEMPA0>-5.48784562e+001</PTEMPA0>
#       <PTEMPA1>5.53756816e+001</PTEMPA1>
#       <PTEMPA2>-5.86727098e-001</PTEMPA2>
#       <PTCA0>5.25246745e+005</PTCA0>
#       <PTCA1>1.22304214e+001</PTCA1>
#       <PTCA2>-3.56745036e-001</PTCA2>
#       <PTCB0>2.51668750e+001</PTCB0>
#       <PTCB1>3.75000000e-004</PTCB1>
#       <PTCB2>0.00000000e+000</PTCB2>
#       <Offset>0.000000</Offset>
#     </PressureSensor>
#   </sensor>
#   <sensor Channel="4" >
#     <!-- A/D voltage 0, Oxygen, SBE 43 -->
#     <OxygenSensor SensorID="38" >
#       <SerialNumber>0434</SerialNumber>
#       <CalibrationDate>13-Apr-19</CalibrationDate>
#       <Use2007Equation>1</Use2007Equation>
#       <CalibrationCoefficients equation="0" >
#         <!-- Coefficients for Owens-Millard equation. -->
#         <Boc>0.0000</Boc>
#         <Soc>0.0000e+000</Soc>
#         <offset>0.0000</offset>
#         <Pcor>0.00e+000</Pcor>
#         <Tcor>0.0000</Tcor>
#         <Tau>0.0</Tau>
#       </CalibrationCoefficients>
#       <CalibrationCoefficients equation="1" >
#         <!-- Coefficients for Sea-Bird equation - SBE calibration in 2007 and later. -->
#         <Soc>4.2007e-001</Soc>
#         <offset>-0.6109</offset>
#         <A>-4.3656e-003</A>
#         <B> 1.7017e-004</B>
#         <C>-2.5341e-006</C>
#         <D0> 2.5826e+000</D0>
#         <D1> 1.92634e-004</D1>
#         <D2>-4.64803e-002</D2>
#         <E> 3.6000e-002</E>
#         <Tau20> 1.1800</Tau20>
#         <H1>-3.3000e-002</H1>
#         <H2> 5.0000e+003</H2>
#         <H3> 1.4500e+003</H3>
#       </CalibrationCoefficients>
#     </OxygenSensor>
#   </sensor>
#   <sensor Channel="5" >
#     <!-- A/D voltage 1, PAR/Logarithmic, Satlantic -->
#     <PARLog_SatlanticSensor SensorID="76" >
#       <SerialNumber>1122</SerialNumber>
#       <CalibrationDate>08-May-2019</CalibrationDate>
#       <a0>9.7456e-001</a0>
#       <a1>8.1640e-001</a1>
#       <Im>1.3589e+000</Im>
#       <Multiplier>1.0000e+000</Multiplier>
#     </PARLog_SatlanticSensor>
#   </sensor>
#   <sensor Channel="6" >
#     <!-- A/D voltage 2, pH -->
#     <pH_Sensor SensorID="43" >
#       <SerialNumber>0363</SerialNumber>
#       <CalibrationDate>15-Apr-19</CalibrationDate>
#       <Slope>4.5952</Slope>
#       <Offset>2.5370</Offset>
#     </pH_Sensor>
#   </sensor>
#   <sensor Channel="7" >
#     <!-- A/D voltage 3, Oxidation Reduction Potential -->
#     <OxidationReductionPotentialSensor SensorID="41" >
#       <SerialNumber>0363</SerialNumber>
#       <CalibrationDate>15-Apr-19</CalibrationDate>
#       <B>2.499480</B>
#       <M>-0.496195</M>
#       <Offset>0.0</Offset>
#     </OxidationReductionPotentialSensor>
#   </sensor>
#   <sensor Channel="8" >
#     <!-- A/D voltage 4, Fluorometer, WET Labs ECO-AFL/FL -->
#     <FluoroWetlabECO_AFL_FL_Sensor SensorID="20" >
#       <SerialNumber>FLNTURT-2496</SerialNumber>
#       <CalibrationDate>08-May-2019</CalibrationDate>
#       <ScaleFactor>5.00000000e+001</ScaleFactor>
#       <!-- Dark output -->
#       <Vblank>0.0550</Vblank>
#     </FluoroWetlabECO_AFL_FL_Sensor>
#   </sensor>
#   <sensor Channel="9" >
#     <!-- A/D voltage 5, Turbidity Meter, WET Labs, ECO-NTU -->
#     <TurbidityMeter SensorID="67" >
#       <SerialNumber>FLNTURT-2496</SerialNumber>
#       <CalibrationDate>08-May-2019</CalibrationDate>
#       <ScaleFactor>189.000000</ScaleFactor>
#       <!-- Dark output -->
#       <DarkVoltage>0.071000</DarkVoltage>
#     </TurbidityMeter>
#   </sensor>
# </Sensors>
# datcnv_date = Aug 15 2019 01:14:34, 7.26.7.129 [datcnv_vars = 15]
# datcnv_in = C:\DATA\081519_fcr50_0000.hex C:\DATA\SBE19plusV2_7809.xmlcon
# datcnv_skipover = 0
# datcnv_ox_hysteresis_correction = yes
# datcnv_ox_tau_correction = yes
# filter_date = Aug 15 2019 01:15:00, 7.26.7.129
# filter_in = C:\DATA\081519_fcr50_0000.cnv
# filter_low_pass_tc_A = 0.030
# filter_low_pass_tc_B = 0.150
# filter_low_pass_A_vars = prdM prdE tv290C density00
# filter_low_pass_B_vars = depFM dz/dtM sbeox0Mg/L sbeox0PS specc c0uS/cm flECO-AFL ph orp par/sat/log turbWETntu0
# alignctd_date = Aug 15 2019 01:15:51, 7.26.7.129
# alignctd_in = C:\DATA\081519_fcr50_0000.cnv
# alignctd_adv = dz/dtM 1.000, sbeox0Mg/L 1.000, sbeox0PS 1.000, specc 1.000, c0uS/cm 1.000, flECO-AFL 1.000, ph 1.000, orp 1.000, turbWETntu0 1.000                                                                                 
# file_type = ascii
*END*
     -0.611 -4.906e-22     8.3090     94.557      1.030   0.963647    -0.1179      6.901   371.7802 2.5708e-01    -0.1946     -0.599     -0.869    21.7378   997.8364 0.0000e+00
     -0.611 -5.396e-21     8.3085     94.553      1.004   0.939280    -0.1133      6.895   362.7707 3.1446e-01    -0.2229     -0.600     -0.870    21.7380   997.8364 0.0000e+00
     -0.611 -5.936e-20     8.3080     94.547      1.001   0.935910    -0.1194      6.892   352.9557 4.0006e-01    -0.2657     -0.599     -0.869    21.7379   997.8364 0.0000e+00
     -0.612 -6.530e-19     8.3078     94.544      0.987   0.922904    -0.1315      6.891   341.2120 4.6428e-01    -0.3183     -0.600     -0.871    21.7381   997.8363 0.0000e+00
     -0.612 -7.183e-18     8.3072     94.537      0.972   0.908746    -0.1294      6.885   332.8015 4.8072e-01    -0.3022     -0.600     -0.870    21.7384   997.8363 0.0000e+00
     -0.612 -7.901e-17     8.3065     94.530      1.089   1.018168    -0.1199      6.877   330.0771 4.7760e-01    -0.2355     -0.599     -0.869    21.7384   997.8363 0.0000e+00
     -0.612 -8.691e-16     8.3062     94.526      1.182   1.105423    -0.1204      6.875   326.4264 4.8662e-01    -0.2322     -0.600     -0.870    21.7384   997.8363 0.0000e+00
     -0.611 -9.560e-15     8.3065     94.529      1.152   1.076696    -0.1272      6.876   318.4307 4.9840e-01    -0.2627     -0.599     -0.869    21.7385   997.8363 0.0000e+00
     -0.611 -1.052e-13     8.3074     94.539      1.124   1.051003    -0.1237      6.876   310.8371 5.0280e-01    -0.2432     -0.599     -0.869    21.7386   997.8362 0.0000e+00
     -0.611 -1.157e-12     8.3086     94.554      1.121   1.048216    -0.1131      6.875   306.0254 5.1599e-01    -0.2266     -0.599     -0.869    21.7386   997.8362 0.0000e+00
     -0.612 -1.272e-11     8.3083     94.551      1.116   1.042998    -0.1118      6.874   302.4127 5.3339e-01    -0.2258     -0.600     -0.870    21.7387   997.8362 0.0000e+00
     -0.612 -1.400e-10     8.3068     94.534      1.057   0.987913    -0.1163      6.874   298.6465 5.3477e-01    -0.2334     -0.600     -0.870    21.7388   997.8362 0.0000e+00
     -0.612 -1.540e-09     8.3069     94.535      0.951   0.889063    -0.1239      6.877   294.5595 5.2764e-01    -0.2855     -0.599     -0.869    21.7386   997.8362 0.0000e+00
     -0.612 -1.694e-08     8.3082     94.549      0.922   0.861576    -0.1343      6.877   291.2852 5.2633e-01    -0.2982     -0.600     -0.871    21.7388   997.8362 0.0000e+00
     -0.612 -1.863e-07     8.3087     94.556      0.972   0.909019    -0.1382      6.874   289.7733 5.2479e-01    -0.2895     -0.600     -0.871    21.7390   997.8361 0.0000e+00
     -0.612 -1.863e-07     8.3086     94.555      1.022   0.955813    -0.1363      6.874   287.9802 5.1673e-01    -0.3106     -0.600     -0.871    21.7390   997.8361 0.0000e+00
     -0.612 -1.693e-08     8.3079     94.547      1.120   1.047195    -0.1383      6.879   284.5754 5.1121e-01    -0.2921     -0.600     -0.870    21.7392   997.8360 0.0000e+00
     -0.612 -1.539e-09     8.3069     94.537      1.137   1.063494    -0.1358      6.895   274.1600 5.1386e-01    -0.2617     -0.600     -0.870    21.7393   997.8360 0.0000e+00
     -0.612 -1.400e-10     8.3065     94.532      1.030   0.962790    -0.1313      6.926   253.3371 5.1436e-01    -0.2717     -0.600     -0.870    21.7394   997.8360 0.0000e+00
     -0.612 -1.272e-11     8.3057     94.523      0.970   0.906723    -0.1288      6.945   240.5919 5.1111e-01    -0.2811     -0.600     -0.870    21.7394   997.8360 0.0000e+00
     -0.612 -1.157e-12     8.3050     94.515      0.886   0.829119    -0.1224      6.925   244.7293 5.1009e-01    -0.2444     -0.600     -0.870    21.7396   997.8360 0.0000e+00
     -0.612 -1.052e-13     8.3059     94.525      0.839   0.784811    -0.1234      6.896   247.7804 5.1109e-01    -0.2208     -0.600     -0.870    21.7397   997.8360 0.0000e+00
     -0.612 -9.560e-15     8.3070     94.538      0.939   0.877884    -0.1231      6.881   247.0251 5.1646e-01    -0.2582     -0.600     -0.870    21.7397   997.8360 0.0000e+00
     -0.612 -8.690e-16     8.3071     94.539      1.006   0.940689    -0.1187      6.865   251.5137 5.2187e-01    -0.2708     -0.600     -0.871    21.7397   997.8360 0.0000e+00
     -0.612 -7.900e-17     8.3080     94.549      0.974   0.910575    -0.1220      6.842   254.4724 5.2528e-01    -0.1762     -0.600     -0.870    21.7399   997.8359 0.0000e+00
     -0.612 -7.180e-18     8.3082     94.552      0.956   0.893946    -0.1201      6.830   252.5125 5.2913e-01    -0.0651     -0.600     -0.870    21.7400   997.8359 0.0000e+00
     -0.612 -6.530e-19     8.3059     94.527      0.927   0.866358    -0.1131      6.835   251.1332 5.3693e-01    -0.0418     -0.600     -0.870    21.7400   997.8359 0.0000e+00
     -0.612 -5.935e-20     8.3047     94.514      0.888   0.830443    -0.1153      6.847   250.5296 5.4079e-01    -0.0262     -0.600     -0.870    21.7402   997.8359 0.0000e+00
     -0.612 -5.395e-21     8.3057     94.525      0.898   0.839871    -0.1203      6.859   249.8604 5.0759e-01    -0.0394     -0.600     -0.870    21.7403   997.8358 0.0000e+00
     -0.612 -4.905e-22     8.3059     94.528      0.913   0.853630    -0.1218      6.869   250.0971 4.6990e-01    -0.1361     -0.600     -0.870    21.7405   997.8358 0.0000e+00
     -0.612 -4.459e-23     8.3050     94.518      0.931   0.870080    -0.1252      6.874   251.4993 4.7826e-01    -0.2121     -0.600     -0.870    21.7406   997.8358 0.0000e+00
     -0.612 -4.054e-24     8.3050     94.518      0.975   0.912044    -0.1180      6.874   254.3382 4.9821e-01    -0.2371     -0.600     -0.871    21.7409   997.8357 0.0000e+00
     -0.612 -3.686e-25     8.3054     94.522      1.049   0.980850    -0.1038      6.874   257.7498 5.1140e-01    -0.2419     -0.600     -0.870    21.7411   997.8357 0.0000e+00
     -0.612 -3.351e-26     8.3057     94.527      1.143   1.068415    -0.1096      6.876   259.4508 5.1706e-01    -0.2701     -0.600     -0.870    21.7412   997.8356 0.0000e+00
     -0.612 -3.046e-27     8.3066     94.537      1.295   1.210451    -0.1194      6.876   260.3644 4.7510e-01    -0.3161     -0.600     -0.871    21.7411   997.8356 0.0000e+00
     -0.612 -2.769e-28     8.3065     94.535      1.463   1.367603    -0.1181      6.876   261.6559 3.8034e-01    -0.3064     -0.600     -0.870    21.7412   997.8356 0.0000e+00
     -0.612 -2.517e-29     8.3060     94.530      1.549   1.447857    -0.1194      6.877   262.3320 2.9162e-01    -0.2841     -0.600     -0.871    21.7416   997.8355 0.0000e+00
     -0.612 -2.289e-30     8.3054     94.523      1.587   1.483815    -0.1266      6.878   262.8603 2.3251e-01    -0.3085     -0.600     -0.871    21.7417   997.8355 0.0000e+00
     -0.612 -2.080e-31     8.3045     94.513      1.656   1.548926    -0.1271      6.877   263.9988 2.0093e-01    -0.3064     -0.600     -0.870    21.7418   997.8355 0.0000e+00
     -0.612 -1.891e-32     8.3049     94.518      1.781   1.664846    -0.1161      6.877   265.3432 2.0758e-01    -0.2586     -0.600     -0.870    21.7418   997.8355 0.0000e+00
     -0.612 -1.719e-33     8.3058     94.528      1.866   1.744867    -0.1067      6.878   266.3818 2.2182e-01    -0.2544     -0.600     -0.870    21.7419   997.8355 0.0000e+00
     -0.612 -1.562e-34     8.3057     94.528      1.878   1.756111    -0.1085      6.878   266.0597 2.1236e-01    -0.2893     -0.600     -0.870    21.7421   997.8355 0.0000e+00
     -0.612 -1.338e-35     8.3054     94.525      1.858   1.737429    -0.1124      6.878   264.0297 1.9240e-01    -0.2864     -0.600     -0.870    21.7422   997.8354 0.0000e+00
     -0.612 7.8784e-36     8.3054     94.526      1.895   1.772439    -0.1107      6.877   262.0572 1.9875e-01    -0.2528     -0.600     -0.870    21.7424   997.8355 0.0000e+00
     -0.612 1.0075e-34     8.3052     94.524      1.924   1.799221    -0.1140      6.879   261.0530 2.3766e-01    -0.2430     -0.600     -0.870    21.7425   997.8354 0.0000e+00
     -0.612 1.1096e-33     8.3042     94.513      1.798   1.681070    -0.1170      6.880   261.2650 2.9068e-01    -0.2993     -0.600     -0.870    21.7424   997.8354 0.0000e+00
     -0.612 1.2205e-32     8.3018     94.487      1.656   1.547777    -0.1124      6.880   263.6750 3.5132e-01    -0.4095     -0.600     -0.870    21.7428   997.8353 0.0000e+00
     -0.612 1.3426e-31     8.2998     94.465      1.488   1.391487    -0.1109      6.878   266.4453 3.9798e-01    -0.4939     -0.600     -0.870    21.7433   997.8353 0.0000e+00
     -0.612 1.4768e-30     8.3000     94.467      1.335   1.248691    -0.1164      6.877   267.5721 4.1928e-01    -0.5327     -0.599     -0.869    21.7436   997.8352 0.0000e+00
     -0.612 1.6245e-29     8.3013     94.482      1.367   1.278569    -0.1177      6.878   269.0391 4.4738e-01    -0.5508     -0.600     -0.870    21.7439   997.8351 0.0000e+00
     -0.611 1.7870e-28     8.3022     94.492      1.400   1.309219    -0.1180      6.878   271.9651 4.8774e-01    -0.5492     -0.599     -0.870    21.7443   997.8350 0.0000e+00
     -0.611 1.9657e-27     8.3011     94.480      1.325   1.239106    -0.1282      6.878   275.6748 5.0439e-01    -0.5456     -0.599     -0.869    21.7445   997.8349 0.0000e+00
     -0.612 2.1622e-26     8.2983     94.449      1.274   1.191172    -0.1287      6.879   279.9935 5.0393e-01    -0.5401     -0.600     -0.870    21.7448   997.8348 0.0000e+00
     -0.612 2.3785e-25     8.2956     94.419      1.254   1.173187    -0.1157      6.880   284.5184 5.1171e-01    -0.5160     -0.600     -0.870    21.7449   997.8348 0.0000e+00
     -0.612 2.6163e-24     8.2926     94.386      1.228   1.148371    -0.1183      6.880   288.7419 5.2206e-01    -0.5170     -0.599     -0.869    21.7451   997.8348 0.0000e+00
     -0.612 2.8779e-23     8.2890     94.345      1.224   1.144568    -0.1257      6.880   292.5141 5.2390e-01    -0.5519     -0.600     -0.870    21.7454   997.8347 0.0000e+00
     -0.611 3.1657e-22     8.2868     94.320      1.205   1.127199    -0.1266      6.880   295.8834 4.5831e-01    -0.5766     -0.599     -0.869    21.7455   997.8347 0.0000e+00
     -0.611 3.4823e-21     8.2838     94.287      1.139   1.065084    -0.1292      6.880   298.8500 3.0166e-01    -0.5541     -0.599     -0.869    21.7457   997.8346 0.0000e+00
     -0.611 3.8305e-20     8.2785     94.226      1.099   1.027163    -0.1223      6.880   301.7107 1.7035e-01    -0.4756     -0.599     -0.869    21.7462   997.8345 0.0000e+00
     -0.611 4.2136e-19     8.2751     94.187      1.122   1.048859    -0.1127      6.879   304.5750 1.3204e-01    -0.4471     -0.599     -0.869    21.7464   997.8345 0.0000e+00
     -0.611 4.6349e-18     8.2750     94.186      1.149   1.073967    -0.1088      6.879   307.0677 1.6770e-01    -0.5050     -0.599     -0.869    21.7466   997.8344 0.0000e+00
     -0.611 5.0984e-17     8.2769     94.209      1.152   1.077298    -0.1096      6.880   309.4797 2.8678e-01    -0.5531     -0.599     -0.869    21.7468   997.8344 0.0000e+00
     -0.611 5.6083e-16     8.2798     94.242      1.165   1.089137    -0.1137      6.881   312.2277 4.2323e-01    -0.5699     -0.599     -0.869    21.7467   997.8344 0.0000e+00
