* Sea-Bird SBE19plus  Data File:
* FileName = C:\R\Reservoirs\Data\DataNotYetUploadedToEDI\Raw_CTD\RawDownloads\081424_ccr50_S8188_0007.hex
* Software version 2.8.0.119
* Temperature SN = 8188
* Conductivity SN = 8188
* System UpLoad Time = Aug 16 2024 10:38:25
* <ApplicationData>
* <Seaterm232>
* <SoftwareVersion>2.8.0.119</SoftwareVersion>
* <BuildDate>07-Nov-2018</BuildDate>
* </Seaterm232>
* </ApplicationData>
* <InstrumentState>
* <HardwareData DeviceType='SBE19plus' SerialNumber='01908188'>
*
*    <Manufacturer>Sea-Bird Electronics, Inc.</Manufacturer>
*
*    <FirmwareVersion>3.1.8</FirmwareVersion>
*
*    <FirmwareDate>Mar  9 2016 16:22:29</FirmwareDate>
*
*    <CommandSetVersion>1.4</CommandSetVersion>
*
*    <PCBAssembly PCBSerialNum='260079' AssemblyNum='41054K'/>
*
*    <PCBAssembly PCBSerialNum='260083' AssemblyNum='41059E'/>
*
*    <PCBAssembly PCBSerialNum='260085' AssemblyNum='41606B'/>
*
*    <PCBAssembly PCBSerialNum='260081' AssemblyNum='41967C'/>
*
*    <MfgDate>30 Mar 2022</MfgDate>
*
*    <InternalSensors>
*
*       <Sensor id='Main Temperature'>
*
*          <type>temperature0</type>
*
*          <SerialNumber>01908188</SerialNumber>
*
*       </Sensor>
*
*       <Sensor id='Main Conductivity'>
*
*          <type>conductivity-0</type>
*
*          <SerialNumber>01908188</SerialNumber>
*
*       </Sensor>
*
*       <Sensor id='Main Pressure'>
*
*          <type>strain-0</type>
*
*          <SerialNumber>12220741</SerialNumber>
*
*       </Sensor>
*
*    </InternalSensors>
*
*    <ExternalSensors>
*
*       <Sensor id='volt 0'>
*
*          <type>CHL</type>
*
*          <SerialNumber>FLNTURT-7096</SerialNumber>
*
*       </Sensor>
*
*       <Sensor id='volt 1'>
*
*          <type>NTU</type>
*
*          <SerialNumber>FLNTURT-7096</SerialNumber>
*
*       </Sensor>
*
*       <Sensor id='volt 2'>
*
*          <type>OXY</type>
*
*          <SerialNumber>43-4269</SerialNumber>
*
*       </Sensor>
*
*       <Sensor id='volt 3'>
*
*          <type>not assigned</type>
*
*          <SerialNumber>not assigned</SerialNumber>
*
*       </Sensor>
*
*       <Sensor id='volt 4'>
*
*          <type>PAR</type>
*
*          <SerialNumber>PARLOGICSW-2209</SerialNumber>
*
*       </Sensor>
*
*       <Sensor id='volt 5'>
*
*          <type>not assigned</type>
*
*          <SerialNumber>not assigned</SerialNumber>
*
*       </Sensor>
*
*       <Sensor id='serial'>
*
*          <type>WETLABS</type>
*
*          <SerialNumber>FL3-7350</SerialNumber>
*
*       </Sensor>
*
*    </ExternalSensors>
*
* </HardwareData>
* <StatusData DeviceType='SBE19plus' SerialNumber='01908188'>
*
*    <DateTime>2024-08-16T10:35:18</DateTime>
*
*    <LoggingState>not logging</LoggingState>
*
*    <EventSummary numEvents='0'/>
*
*    <Power>
*
*       <vMain>12.4</vMain>
*
*       <vLith>8.6</vLith>
*
*       <iMain>61.7</iMain>
*
*       <iPump>49.8</iPump>
*
*       <iExt01>21.9</iExt01>
*
*       <iExt2345>21.1</iExt2345>
*
*       <iSerial>55.5</iSerial>
*
*    </Power>
*
*    <MemorySummary>
*
*       <Bytes>279875</Bytes>
*
*       <Samples>11195</Samples>
*
*       <SamplesFree>2620730</SamplesFree>
*
*       <SampleLength>25</SampleLength>
*
*       <Profiles>7</Profiles>
*
*    </MemorySummary>
*
* </StatusData>
* <ConfigurationData DeviceType='SBE19plus' SerialNumber='01908188'>
*
*    <ProfileMode>
*
*       <ScansToAverage>1</ScansToAverage>
*
*       <MinimumCondFreq>2</MinimumCondFreq>
*
*       <PumpDelay>90</PumpDelay>
*
*       <AutoRun>no</AutoRun>
*
*       <IgnoreSwitch>no</IgnoreSwitch>
*
*    </ProfileMode>
*
*    <Battery>
*
*       <Type>alkaline</Type>
*
*       <CutOff>7.5</CutOff>
*
*    </Battery>
*
*    <DataChannels>
*
*       <ExtVolt0>yes</ExtVolt0>
*
*       <ExtVolt1>yes</ExtVolt1>
*
*       <ExtVolt2>yes</ExtVolt2>
*
*       <ExtVolt3>no</ExtVolt3>
*
*       <ExtVolt4>yes</ExtVolt4>
*
*       <ExtVolt5>no</ExtVolt5>
*
*       <SBE38>no</SBE38>
*
*       <WETLABS>yes</WETLABS>
*
*       <OPTODE>no</OPTODE>
*
*       <SBE63>no</SBE63>
*
*       <SeaFET>no</SeaFET>
*
*       <GTD>no</GTD>
*
*    </DataChannels>
*
*    <EchoCharacters>yes</EchoCharacters>
*
*    <OutputExecutedTag>yes</OutputExecutedTag>
*
*    <OutputFormat>raw HEX</OutputFormat>
*
* </ConfigurationData>
* <CalibrationCoefficients DeviceType='SBE19plus' SerialNumber='01908188'>
*
*    <Calibration format='TEMP1' id='Main Temperature'>
*
*       <SerialNum>01908188</SerialNum>
*
*       <CalDate>07-May-24</CalDate>
*
*       <TA0>1.249325e-03</TA0>
*
*       <TA1>2.751683e-04</TA1>
*
*       <TA2>-1.314205e-06</TA2>
*
*       <TA3>1.914222e-07</TA3>
*
*       <TOFFSET>0.000000e+00</TOFFSET>
*
*    </Calibration>
*
*    <Calibration format='WBCOND0' id='Main Conductivity'>
*
*       <SerialNum>01908188</SerialNum>
*
*       <CalDate>07-May-24</CalDate>
*
*       <G>-1.014855e+00</G>
*
*       <H>1.444624e-01</H>
*
*       <I>-3.430060e-04</I>
*
*       <J>4.842261e-05</J>
*
*       <CPCOR>-9.570000e-08</CPCOR>
*
*       <CTCOR>3.250000e-06</CTCOR>
*
*       <CSLOPE>1.000000e+00</CSLOPE>
*
*    </Calibration>
*
*    <Calibration format='STRAIN0' id='Main Pressure'>
*
*       <SerialNum>12220741</SerialNum>
*
*       <CalDate>03-Apr-24</CalDate>
*
*       <PA0>7.209200e-02</PA0>
*
*       <PA1>4.836684e-04</PA1>
*
*       <PA2>-3.501227e-12</PA2>
*
*       <PTCA0>5.244614e+05</PTCA0>
*
*       <PTCA1>2.020364e+01</PTCA1>
*
*       <PTCA2>-6.074616e-01</PTCA2>
*
*       <PTCB0>2.522087e+01</PTCB0>
*
*       <PTCB1>5.750000e-04</PTCB1>
*
*       <PTCB2>0.000000e+00</PTCB2>
*
*       <PTEMPA0>-5.770713e+01</PTEMPA0>
*
*       <PTEMPA1>5.343973e+01</PTEMPA1>
*
*       <PTEMPA2>-5.775530e-01</PTEMPA2>
*
*       <POFFSET>7.020000e-01</POFFSET>
*
*       <PRANGE>1.600000e+02</PRANGE>
*
*    </Calibration>
*
*    <Calibration format='VOLT0' id='Volt 0'>
*
*       <OFFSET>-4.657200e-02</OFFSET>
*
*       <SLOPE>1.248989e+00</SLOPE>
*
*    </Calibration>
*
*    <Calibration format='VOLT0' id='Volt 1'>
*
*       <OFFSET>-4.600800e-02</OFFSET>
*
*       <SLOPE>1.249849e+00</SLOPE>
*
*    </Calibration>
*
*    <Calibration format='VOLT0' id='Volt 2'>
*
*       <OFFSET>-4.668000e-02</OFFSET>
*
*       <SLOPE>1.250379e+00</SLOPE>
*
*    </Calibration>
*
*    <Calibration format='VOLT0' id='Volt 3'>
*
*       <OFFSET>-4.643200e-02</OFFSET>
*
*       <SLOPE>1.251002e+00</SLOPE>
*
*    </Calibration>
*
*    <Calibration format='VOLT0' id='Volt 4'>
*
*       <OFFSET>-4.606100e-02</OFFSET>
*
*       <SLOPE>1.249962e+00</SLOPE>
*
*    </Calibration>
*
*    <Calibration format='VOLT0' id='Volt 5'>
*
*       <OFFSET>-4.642700e-02</OFFSET>
*
*       <SLOPE>1.248530e+00</SLOPE>
*
*    </Calibration>
*
*    <Calibration format='FREQ0' id='external frequency channel'>
*
*       <EXTFREQSF>1.000018e+00</EXTFREQSF>
*
*    </Calibration>
*
* </CalibrationCoefficients>
* <EventCounters DeviceType='SBE19plus' SerialNumber='01908188'>
*
*    <EventSummary numEvents='0'/>
*
* </EventCounters></InstrumentState>
* <Headers>
*
* cast   7 15 Aug 2024 15:58:47 samples 10154 to 11195, avg = 1, stop = mag switch
*
# nquan = 13
# nvalues = 1042                        
# units = specified
# name 0 = depFM: Depth [fresh water, m]
# name 1 = dz/dtM: Descent Rate [m/s]
# name 2 = sbeox0Mg/L: Oxygen, SBE 43 [mg/l]
# name 3 = sbeox0PS: Oxygen, SBE 43 [% saturation]
# name 4 = specc: Specific Conductance [uS/cm]
# name 5 = c0uS/cm: Conductivity [uS/cm]
# name 6 = flECO-AFL: Fluorescence, WET Labs ECO-AFL/FL [mg/m^3]
# name 7 = par/sat/log: PAR/Logarithmic, Satlantic
# name 8 = turbWETntu0: Turbidity, WET Labs ECO [NTU]
# name 9 = prdM: Pressure, Strain Gauge [db]
# name 10 = prdE: Pressure, Strain Gauge [psi]
# name 11 = tv290C: Temperature [ITS-90, deg C]
# name 12 = flag:  0.000e+00
# span 0 =     -0.455,      3.946       
# span 1 =     -0.523,      0.234       
# span 2 =     4.0653,    10.4980       
# span 3 =     51.975,    130.970       
# span 4 =  -1151.711,    117.494       
# span 5 = -1.206e+03, 125.623078       
# span 6 =    -0.4335,     3.1448       
# span 7 = 1.3848e-01, 1.8930e+03       
# span 8 =   -10.6177,   170.1386       
# span 9 =     -0.447,      3.873       
# span 10 =     -0.648,      5.617      
# span 11 =    25.6219,    28.6744      
# span 12 = 0.0000e+00, 0.0000e+00      
# interval = seconds: 0.25
# start_time = Aug 15 2024 15:58:47 [Instrument's time stamp, header]
# bad_flag = -9.990e-29
# <Sensors count="10" >
#   <sensor Channel="1" >
#     <!-- Count, Temperature -->
#     <TemperatureSensor SensorID="58" >
#       <SerialNumber>8188</SerialNumber>
#       <CalibrationDate>07-May-24</CalibrationDate>
#       <A0>1.24932504e-003</A0>
#       <A1>2.75168293e-004</A1>
#       <A2>-1.31420465e-006</A2>
#       <A3>1.91422179e-007</A3>
#       <Slope>1.00000000</Slope>
#       <Offset>0.0000</Offset>
#     </TemperatureSensor>
#   </sensor>
#   <sensor Channel="2" >
#     <!-- Frequency 0, Conductivity -->
#     <ConductivitySensor SensorID="3" >
#       <SerialNumber>8188</SerialNumber>
#       <CalibrationDate>07-May-24</CalibrationDate>
#       <UseG_J>1</UseG_J>
#       <!-- Cell const and series R are applicable only for wide range sensors. -->
#       <SeriesR>0.0000</SeriesR>
#       <CellConst>2000.0000</CellConst>
#       <ConductivityType>0</ConductivityType>
#       <Coefficients equation="0" >
#         <A>0.00000000e+000</A>
#         <B>0.00000000e+000</B>
#         <C>0.00000000e+000</C>
#         <D>0.00000000e+000</D>
#         <M>0.0</M>
#         <CPcor>-9.57000000e-008</CPcor>
#       </Coefficients>
#       <Coefficients equation="1" >
#         <G>-1.01485473e+000</G>
#         <H>1.44462400e-001</H>
#         <I>-3.43006030e-004</I>
#         <J>4.84226116e-005</J>
#         <CPcor>-9.57000000e-008</CPcor>
#         <CTcor>3.2500e-006</CTcor>
#         <!-- WBOTC not applicable unless ConductivityType = 1. -->
#         <WBOTC>0.00000000e+000</WBOTC>
#       </Coefficients>
#       <Slope>1.00000000</Slope>
#       <Offset>0.00000</Offset>
#     </ConductivitySensor>
#   </sensor>
#   <sensor Channel="3" >
#     <!-- Count, Pressure, Strain Gauge -->
#     <PressureSensor SensorID="46" >
#       <SerialNumber>8188</SerialNumber>
#       <CalibrationDate>03-Apr-24</CalibrationDate>
#       <PA0>7.20920045e-002</PA0>
#       <PA1>4.83668449e-004</PA1>
#       <PA2>-3.50122678e-012</PA2>
#       <PTEMPA0>-5.77071299e+001</PTEMPA0>
#       <PTEMPA1>5.34397285e+001</PTEMPA1>
#       <PTEMPA2>-5.77553003e-001</PTEMPA2>
#       <PTCA0>5.24461366e+005</PTCA0>
#       <PTCA1>2.02036405e+001</PTCA1>
#       <PTCA2>-6.07461634e-001</PTCA2>
#       <PTCB0>2.52208750e+001</PTCB0>
#       <PTCB1>5.75000000e-004</PTCB1>
#       <PTCB2>0.00000000e+000</PTCB2>
#       <Offset>0.000000</Offset>
#     </PressureSensor>
#   </sensor>
#   <sensor Channel="4" >
#     <!-- A/D voltage 0, Fluorometer, WET Labs ECO-AFL/FL -->
#     <FluoroWetlabECO_AFL_FL_Sensor SensorID="20" >
#       <SerialNumber>FLNTURT-7096</SerialNumber>
#       <CalibrationDate>21-Mar-2024</CalibrationDate>
#       <ScaleFactor>5.00000000e+001</ScaleFactor>
#       <!-- Dark output -->
#       <Vblank>0.0710</Vblank>
#     </FluoroWetlabECO_AFL_FL_Sensor>
#   </sensor>
#   <sensor Channel="5" >
#     <!-- A/D voltage 1, Turbidity Meter, WET Labs, ECO-NTU -->
#     <TurbidityMeter SensorID="67" >
#       <SerialNumber>FLNTURT-7096</SerialNumber>
#       <CalibrationDate>21-Mar-2024</CalibrationDate>
#       <ScaleFactor>198.000000</ScaleFactor>
#       <!-- Dark output -->
#       <DarkVoltage>0.070000</DarkVoltage>
#     </TurbidityMeter>
#   </sensor>
#   <sensor Channel="6" >
#     <!-- A/D voltage 2, Oxygen, SBE 43 -->
#     <OxygenSensor SensorID="38" >
#       <SerialNumber>4269</SerialNumber>
#       <CalibrationDate>08-May-24</CalibrationDate>
#       <Use2007Equation>1</Use2007Equation>
#       <CalibrationCoefficients equation="0" >
#         <!-- Coefficients for Owens-Millard equation. -->
#         <Boc>0.0000</Boc>
#         <Soc>0.0000e+000</Soc>
#         <offset>0.0000</offset>
#         <Pcor>0.00e+000</Pcor>
#         <Tcor>0.0000</Tcor>
#         <Tau>0.0</Tau>
#       </CalibrationCoefficients>
#       <CalibrationCoefficients equation="1" >
#         <!-- Coefficients for Sea-Bird equation - SBE calibration in 2007 and later. -->
#         <Soc>4.3983e-001</Soc>
#         <offset>-0.4978</offset>
#         <A>-4.5504e-003</A>
#         <B> 2.4929e-004</B>
#         <C>-4.1306e-006</C>
#         <D0> 2.5826e+000</D0>
#         <D1> 1.92634e-004</D1>
#         <D2>-4.64803e-002</D2>
#         <E> 3.6000e-002</E>
#         <Tau20> 1.9700</Tau20>
#         <H1>-3.3000e-002</H1>
#         <H2> 5.0000e+003</H2>
#         <H3> 1.4500e+003</H3>
#       </CalibrationCoefficients>
#     </OxygenSensor>
#   </sensor>
#   <sensor Channel="7" >
#     <!-- A/D voltage 3, PAR/Logarithmic, Satlantic -->
#     <PARLog_SatlanticSensor SensorID="76" >
#       <SerialNumber>2209</SerialNumber>
#       <CalibrationDate>14-Jan-2022</CalibrationDate>
#       <a0>9.8861e-001</a0>
#       <a1>8.0845e-001</a1>
#       <Im>1.3589e+000</Im>
#       <Multiplier>1.0000e+000</Multiplier>
#     </PARLog_SatlanticSensor>
#   </sensor>
#   <sensor Channel="8" >
#     <!-- Serial RS-232, Fluorometer, WET Labs ECO-AFL/FL, 2 -->
#     <FluoroWetlabECO_AFL_FL_Sensor SensorID="20" >
#       <SerialNumber>FL3-7350</SerialNumber>
#       <CalibrationDate>10-Mar-2022</CalibrationDate>
#       <ScaleFactor>4.26000000e-002</ScaleFactor>
#       <!-- Dark output -->
#       <Vblank>50.0000</Vblank>
#     </FluoroWetlabECO_AFL_FL_Sensor>
#   </sensor>
#   <sensor Channel="9" >
#     <!-- Serial RS-232, Fluorometer, WET Labs ECO-AFL/FL, 3 -->
#     <FluoroWetlabECO_AFL_FL_Sensor SensorID="20" >
#       <SerialNumber>FL3-7350</SerialNumber>
#       <CalibrationDate>10-Mar-2022</CalibrationDate>
#       <ScaleFactor>4.23000000e-002</ScaleFactor>
#       <!-- Dark output -->
#       <Vblank>48.0000</Vblank>
#     </FluoroWetlabECO_AFL_FL_Sensor>
#   </sensor>
#   <sensor Channel="10" >
#     <!-- Serial RS-232, Fluorometer, WET Labs ECO CDOM -->
#     <FluoroWetlabCDOM_Sensor SensorID="19" >
#       <SerialNumber>FL3-7350</SerialNumber>
#       <CalibrationDate>10-Mar-2022</CalibrationDate>
#       <ScaleFactor>0.090</ScaleFactor>
#       <!-- Dark output -->
#       <Vblank>50.000</Vblank>
#     </FluoroWetlabCDOM_Sensor>
#   </sensor>
# </Sensors>
# datcnv_date = Aug 16 2024 10:56:16, 7.26.7.129 [datcnv_vars = 12]
# datcnv_in = C:\R\Reservoirs\Data\DataNotYetUploadedToEDI\Raw_CTD\RawDownloads\081524_ccr90_S8188007.hex C:\R\Reservoirs\Data\DataNotYetUploadedToEDI\Raw_CTD\RawDownloads\SBE19plusV2_8188_start20240601.xmlcon
# datcnv_skipover = 0
# datcnv_ox_hysteresis_correction = yes
# datcnv_ox_tau_correction = yes
# filter_date = Aug 16 2024 10:58:05, 7.26.7.129
# filter_in = C:\R\Reservoirs\Data\DataNotYetUploadedToEDI\Raw_CTD\RawDownloads\081524_ccr90_S8188007.cnv
# filter_low_pass_tc_A = 0.030
# filter_low_pass_tc_B = 0.150
# filter_low_pass_A_vars = sbeox0Mg/L prdM prdE tv290C
# filter_low_pass_B_vars = depFM dz/dtM sbeox0PS specc c0uS/cm flECO-AFL par/sat/log turbWETntu0
# alignctd_date = Aug 16 2024 10:59:29, 7.26.7.129
# alignctd_in = C:\R\Reservoirs\Data\DataNotYetUploadedToEDI\Raw_CTD\RawDownloads\081524_ccr90_S8188007.cnv
# alignctd_adv = dz/dtM 1.000, sbeox0PS 1.000, specc 1.000, c0uS/cm 1.000, flECO-AFL 1.000, turbWETntu0 1.000                                                                                                                        
# file_type = ascii
*END*
     -0.453 -2.632e-15     8.4527    103.489      2.987   3.025606     0.1011 1.3111e+03    -1.0862     -0.444     -0.644    25.6451 0.0000e+00
     -0.453 -2.898e-14     8.4595    103.415      3.569   3.615577     0.1053 1.2979e+03    -1.0846     -0.444     -0.644    25.6450 0.0000e+00
     -0.453 -3.188e-13     8.4596    103.333      3.889   3.939188     0.0129 1.2574e+03    -1.0906     -0.444     -0.644    25.6448 0.0000e+00
     -0.453 -5.845e-13     8.4558    103.260      4.172   4.226167    -0.1582 1.1406e+03    -1.0559     -0.444     -0.644    25.6446 0.0000e+00
     -0.453 -3.180e-13     8.4509    103.219      4.183   4.237567    -0.2555 9.3343e+02    -1.0087     -0.444     -0.644    25.6443 0.0000e+00
     -0.453 -1.936e-14     8.4446    103.204      3.890   3.941427    -0.2696 8.2448e+02    -1.0347     -0.444     -0.644    25.6441 0.0000e+00
     -0.453 1.0324e-13     8.4380    103.213      3.649   3.696812    -0.2690 9.7431e+02    -1.0960     -0.444     -0.644    25.6438 0.0000e+00
     -0.453 1.1644e-12     8.4303    103.251      3.539   3.585340    -0.2738 1.2037e+03    -1.0969     -0.444     -0.645    25.6437 0.0000e+00
     -0.453 1.2811e-11     8.4284    103.296      3.364   3.407280    -0.2844 1.3283e+03    -1.0796     -0.444     -0.644    25.6435 0.0000e+00
     -0.453 1.4092e-10     8.4268    103.321      3.265   3.306790    -0.2848 1.3798e+03    -1.0929     -0.444     -0.644    25.6431 0.0000e+00
     -0.453 1.5501e-09     8.4271    103.331      3.478   3.522969    -0.2877 1.3968e+03    -1.0519     -0.443     -0.643    25.6428 0.0000e+00
     -0.453 1.7051e-08     8.4312    103.347      3.736   3.783565    -0.3106 1.3796e+03    -0.9269     -0.444     -0.644    25.6426 0.0000e+00
     -0.452 1.8756e-07     8.4359    103.376      3.832   3.881088    -0.3274 1.3114e+03    -0.8519     -0.444     -0.644    25.6419 0.0000e+00
     -0.452 2.0045e-07     8.4378    103.396      3.839   3.888444    -0.3254 1.1746e+03    -0.8319     -0.442     -0.642    25.6420 0.0000e+00
     -0.453 1.7288e-07     8.4376    103.387      3.823   3.872513    -0.3481 9.9972e+02    -0.5826     -0.444     -0.644    25.6412 0.0000e+00
     -0.453      0.000     8.4389    103.370      3.776   3.824087    -0.4022 8.9645e+02    -0.1382     -0.445     -0.645    25.6415 0.0000e+00
     -0.453      0.000     8.4420    103.370      3.663   3.709751    -0.4335 9.2245e+02     0.1130     -0.444     -0.644    25.6397 0.0000e+00
     -0.453      0.000     8.4448    103.377      3.728   3.778368    -0.4231 9.7695e+02     0.1882     -0.444     -0.645    25.6412 0.0000e+00
     -0.453      0.002     8.4436    103.374      5.909   6.009822    -0.3290 9.9618e+02     0.5997     -0.444     -0.644    25.6372 0.0000e+00
     -0.453      0.010     8.4400    103.361     21.460  22.010275    -0.1706 9.9173e+02     1.3810     -0.444     -0.644    25.6419 0.0000e+00
     -0.453      0.026     8.4425    103.344     50.425  52.141418    -0.0861 9.9110e+02     1.8063     -0.444     -0.644    25.6323 0.0000e+00
     -0.452      0.049     8.4415    103.336     79.762  83.377046    -0.0697 1.0432e+03     1.7938     -0.444     -0.644    25.6462 0.0000e+00
     -0.446      0.074     8.4448    103.333    104.517 110.218981    -0.0166 1.1472e+03     1.5048     -0.443     -0.643    25.6219 0.0000e+00
     -0.421      0.099     8.4361    103.319    116.220 123.239186     0.0707 1.2532e+03     0.9558     -0.423     -0.613    25.6705 0.0000e+00
     -0.379      0.119     8.3333    103.306    117.030 124.653851     0.1195 1.3344e+03     0.6483     -0.370     -0.537    26.3280 0.0000e+00
     -0.336      0.134     8.2008    103.309    116.960 125.005409     0.1216 1.4032e+03     0.6366     -0.326     -0.473    27.2113 0.0000e+00
