* Sea-Bird SBE19plus  Data File:
* FileName = C:\DATA\081519_fcr50b_0001.hex
* Software version 2.8.0.119 SB_Terminal.dll
* Temperature SN = 7809
* Conductivity SN = 7809
* System UpLoad Time = Aug 15 2019 15:08:56
* <ApplicationData>
* <Seaterm232>
* <SoftwareVersion>2.8.0.119</SoftwareVersion>
* <BuildDate>07-Nov-2018</BuildDate>
* </Seaterm232>
* </ApplicationData>
* cast   1 15 Aug 2019 03:00:02 samples 1 to 941, avg = 1, stop = mag switch
# nquan = 16
# nvalues = 825                         
# units = specified
# name 0 = depFM: Depth [fresh water, m]
# name 1 = dz/dtM: Descent Rate [m/s]
# name 2 = sbeox0Mg/L: Oxygen, SBE 43 [mg/l]
# name 3 = sbeox0PS: Oxygen, SBE 43 [% saturation]
# name 4 = specc: Specific Conductance [uS/cm]
# name 5 = c0uS/cm: Conductivity [uS/cm]
# name 6 = flECO-AFL: Fluorescence, WET Labs ECO-AFL/FL [mg/m^3]
# name 7 = ph: pH
# name 8 = orp: Oxidation Reduction Potential [mV]
# name 9 = par/sat/log: PAR/Logarithmic, Satlantic
# name 10 = turbWETntu0: Turbidity, WET Labs ECO [NTU]
# name 11 = prdM: Pressure, Strain Gauge [db]
# name 12 = prdE: Pressure, Strain Gauge [psi]
# name 13 = tv290C: Temperature [ITS-90, deg C]
# name 14 = density00: Density [density, kg/m^3]
# name 15 = flag:  0.000e+00
# span 0 =     -0.618,      9.504       
# span 1 =     -0.011,      0.258       
# span 2 =     0.1271,    10.0243       
# span 3 =      1.295,    123.410       
# span 4 =      0.354,     68.362       
# span 5 =   0.321278,  52.708120       
# span 6 =    -0.1433,     8.8703       
# span 7 =      6.877,      9.401       
# span 8 =   209.7045,   368.9914       
# span 9 = 1.2357e-01, 5.9763e-01       
# span 10 =    -0.5640,    37.5458      
# span 11 =     -0.606,      9.321      
# span 12 =     -0.879,     13.519      
# span 13 =    11.8089,    27.1757      
# span 14 =   996.4870,   999.5847      
# span 15 = 0.0000e+00, 0.0000e+00      
# interval = seconds: 0.25
# start_time = Aug 15 2019 03:00:02 [Instrument's time stamp, header]
# bad_flag = -9.990e-29
# <Sensors count="9" >
#   <sensor Channel="1" >
#     <!-- Count, Temperature -->
#     <TemperatureSensor SensorID="58" >
#       <SerialNumber>7809</SerialNumber>
#       <CalibrationDate>24-Mar-19</CalibrationDate>
#       <A0>1.21792325e-003</A0>
#       <A1>2.81669265e-004</A1>
#       <A2>-1.60333336e-006</A2>
#       <A3>1.98414625e-007</A3>
#       <Slope>1.00000000</Slope>
#       <Offset>0.0000</Offset>
#     </TemperatureSensor>
#   </sensor>
#   <sensor Channel="2" >
#     <!-- Frequency 0, Conductivity -->
#     <ConductivitySensor SensorID="3" >
#       <SerialNumber>7809</SerialNumber>
#       <CalibrationDate>24-Mar-19</CalibrationDate>
#       <UseG_J>1</UseG_J>
#       <!-- Cell const and series R are applicable only for wide range sensors. -->
#       <SeriesR>0.0000</SeriesR>
#       <CellConst>2000.0000</CellConst>
#       <ConductivityType>0</ConductivityType>
#       <Coefficients equation="0" >
#         <A>0.00000000e+000</A>
#         <B>0.00000000e+000</B>
#         <C>0.00000000e+000</C>
#         <D>0.00000000e+000</D>
#         <M>0.0</M>
#         <CPcor>-9.57000000e-008</CPcor>
#       </Coefficients>
#       <Coefficients equation="1" >
#         <G>-1.00589325e+000</G>
#         <H>1.26816302e-001</H>
#         <I>-1.51560448e-004</I>
#         <J>2.67137274e-005</J>
#         <CPcor>-9.57000000e-008</CPcor>
#         <CTcor>3.2500e-006</CTcor>
#         <!-- WBOTC not applicable unless ConductivityType = 1. -->
#         <WBOTC>0.00000000e+000</WBOTC>
#       </Coefficients>
#       <Slope>1.00000000</Slope>
#       <Offset>0.00000</Offset>
#     </ConductivitySensor>
#   </sensor>
#   <sensor Channel="3" >
#     <!-- Count, Pressure, Strain Gauge -->
#     <PressureSensor SensorID="46" >
#       <SerialNumber>7809</SerialNumber>
#       <CalibrationDate>11-Mar-19</CalibrationDate>
#       <PA0>4.56561833e-002</PA0>
#       <PA1>4.85095118e-004</PA1>
#       <PA2>-2.88327090e-012</PA2>
#       <PTEMPA0>-5.48784562e+001</PTEMPA0>
#       <PTEMPA1>5.53756816e+001</PTEMPA1>
#       <PTEMPA2>-5.86727098e-001</PTEMPA2>
#       <PTCA0>5.25246745e+005</PTCA0>
#       <PTCA1>1.22304214e+001</PTCA1>
#       <PTCA2>-3.56745036e-001</PTCA2>
#       <PTCB0>2.51668750e+001</PTCB0>
#       <PTCB1>3.75000000e-004</PTCB1>
#       <PTCB2>0.00000000e+000</PTCB2>
#       <Offset>0.000000</Offset>
#     </PressureSensor>
#   </sensor>
#   <sensor Channel="4" >
#     <!-- A/D voltage 0, Oxygen, SBE 43 -->
#     <OxygenSensor SensorID="38" >
#       <SerialNumber>0434</SerialNumber>
#       <CalibrationDate>13-Apr-19</CalibrationDate>
#       <Use2007Equation>1</Use2007Equation>
#       <CalibrationCoefficients equation="0" >
#         <!-- Coefficients for Owens-Millard equation. -->
#         <Boc>0.0000</Boc>
#         <Soc>0.0000e+000</Soc>
#         <offset>0.0000</offset>
#         <Pcor>0.00e+000</Pcor>
#         <Tcor>0.0000</Tcor>
#         <Tau>0.0</Tau>
#       </CalibrationCoefficients>
#       <CalibrationCoefficients equation="1" >
#         <!-- Coefficients for Sea-Bird equation - SBE calibration in 2007 and later. -->
#         <Soc>4.2007e-001</Soc>
#         <offset>-0.6109</offset>
#         <A>-4.3656e-003</A>
#         <B> 1.7017e-004</B>
#         <C>-2.5341e-006</C>
#         <D0> 2.5826e+000</D0>
#         <D1> 1.92634e-004</D1>
#         <D2>-4.64803e-002</D2>
#         <E> 3.6000e-002</E>
#         <Tau20> 1.1800</Tau20>
#         <H1>-3.3000e-002</H1>
#         <H2> 5.0000e+003</H2>
#         <H3> 1.4500e+003</H3>
#       </CalibrationCoefficients>
#     </OxygenSensor>
#   </sensor>
#   <sensor Channel="5" >
#     <!-- A/D voltage 1, PAR/Logarithmic, Satlantic -->
#     <PARLog_SatlanticSensor SensorID="76" >
#       <SerialNumber>1122</SerialNumber>
#       <CalibrationDate>08-May-2019</CalibrationDate>
#       <a0>9.7456e-001</a0>
#       <a1>8.1640e-001</a1>
#       <Im>1.3589e+000</Im>
#       <Multiplier>1.0000e+000</Multiplier>
#     </PARLog_SatlanticSensor>
#   </sensor>
#   <sensor Channel="6" >
#     <!-- A/D voltage 2, pH -->
#     <pH_Sensor SensorID="43" >
#       <SerialNumber>0363</SerialNumber>
#       <CalibrationDate>15-Apr-19</CalibrationDate>
#       <Slope>4.5952</Slope>
#       <Offset>2.5370</Offset>
#     </pH_Sensor>
#   </sensor>
#   <sensor Channel="7" >
#     <!-- A/D voltage 3, Oxidation Reduction Potential -->
#     <OxidationReductionPotentialSensor SensorID="41" >
#       <SerialNumber>0363</SerialNumber>
#       <CalibrationDate>15-Apr-19</CalibrationDate>
#       <B>2.499480</B>
#       <M>-0.496195</M>
#       <Offset>0.0</Offset>
#     </OxidationReductionPotentialSensor>
#   </sensor>
#   <sensor Channel="8" >
#     <!-- A/D voltage 4, Fluorometer, WET Labs ECO-AFL/FL -->
#     <FluoroWetlabECO_AFL_FL_Sensor SensorID="20" >
#       <SerialNumber>FLNTURT-2496</SerialNumber>
#       <CalibrationDate>08-May-2019</CalibrationDate>
#       <ScaleFactor>5.00000000e+001</ScaleFactor>
#       <!-- Dark output -->
#       <Vblank>0.0550</Vblank>
#     </FluoroWetlabECO_AFL_FL_Sensor>
#   </sensor>
#   <sensor Channel="9" >
#     <!-- A/D voltage 5, Turbidity Meter, WET Labs, ECO-NTU -->
#     <TurbidityMeter SensorID="67" >
#       <SerialNumber>FLNTURT-2496</SerialNumber>
#       <CalibrationDate>08-May-2019</CalibrationDate>
#       <ScaleFactor>189.000000</ScaleFactor>
#       <!-- Dark output -->
#       <DarkVoltage>0.071000</DarkVoltage>
#     </TurbidityMeter>
#   </sensor>
# </Sensors>
# datcnv_date = Aug 15 2019 15:13:00, 7.26.7.129 [datcnv_vars = 15]
# datcnv_in = C:\DATA\081519_fcr50b_0001.hex C:\DATA\SBE19plusV2_7809.xmlcon
# datcnv_skipover = 0
# datcnv_ox_hysteresis_correction = yes
# datcnv_ox_tau_correction = yes
# filter_date = Aug 15 2019 15:16:10, 7.26.7.129
# filter_in = C:\DATA\081519_fcr50b_0001.cnv
# filter_low_pass_tc_A = 0.030
# filter_low_pass_tc_B = 0.150
# filter_low_pass_A_vars = prdM prdE tv290C density00
# filter_low_pass_B_vars = depFM dz/dtM sbeox0Mg/L sbeox0PS specc c0uS/cm flECO-AFL ph orp par/sat/log turbWETntu0
# alignctd_date = Aug 15 2019 15:17:57, 7.26.7.129
# alignctd_in = C:\DATA\081519_fcr50b_0001.cnv
# alignctd_adv = dz/dtM 1.000, sbeox0Mg/L 1.000, sbeox0PS 1.000, specc 1.000, c0uS/cm 1.000, flECO-AFL 1.000, ph 1.000, orp 1.000, turbWETntu0 1.000                                                                                 
# file_type = ascii
*END*
     -0.617 -5.121e-18     8.5755     95.162      0.354   0.321278    -0.1320      6.912   321.3105 2.0683e-01    -0.3261     -0.605     -0.878    20.4482   998.1168 0.0000e+00
     -0.617 -8.786e-17     8.5750     95.156      0.370   0.336702    -0.1191      6.918   321.9204 1.8720e-01    -0.2822     -0.605     -0.878    20.4482   998.1168 0.0000e+00
     -0.617 -9.693e-16     8.5755     95.162      0.378   0.344041    -0.1099      6.924   322.3924 1.8497e-01    -0.2020     -0.605     -0.878    20.4482   998.1168 0.0000e+00
     -0.617 -1.066e-14     8.5760     95.168      0.451   0.410008    -0.1149      6.924   322.5430 1.6168e-01    -0.2084     -0.605     -0.877    20.4483   998.1168 0.0000e+00
     -0.617 -1.173e-13     8.5761     95.169      0.551   0.500721    -0.1274      6.921   323.5691 1.7012e-01    -0.2616     -0.605     -0.878    20.4483   998.1168 0.0000e+00
     -0.617 -1.290e-12     8.5759     95.166      0.609   0.553819    -0.1315      6.921   326.1091 2.6251e-01    -0.2554     -0.605     -0.878    20.4485   998.1167 0.0000e+00
     -0.617 -1.419e-11     8.5749     95.156      0.600   0.545135    -0.1295      6.923   328.5606 3.8597e-01    -0.2318     -0.605     -0.878    20.4486   998.1167 0.0000e+00
     -0.617 -1.561e-10     8.5741     95.147      0.575   0.522436    -0.1298      6.925   328.6895 4.6245e-01    -0.2381     -0.605     -0.878    20.4484   998.1168 0.0000e+00
     -0.617 -1.717e-09     8.5744     95.150      0.586   0.532816    -0.1266      6.926   328.4410 4.7310e-01    -0.2661     -0.605     -0.878    20.4483   998.1167 0.0000e+00
     -0.617 -1.889e-08     8.5744     95.150      0.598   0.543921    -0.1162      6.926   329.0842 4.6576e-01    -0.2750     -0.606     -0.879    20.4484   998.1167 0.0000e+00
     -0.617 -2.078e-07     8.5727     95.131      0.583   0.529985    -0.1085      6.926   329.6688 4.8885e-01    -0.2478     -0.605     -0.878    20.4485   998.1167 0.0000e+00
     -0.617 -5.681e-07     8.5713     95.117      0.540   0.491034    -0.1119      6.927   330.1759 5.4075e-01    -0.2322     -0.605     -0.878    20.4486   998.1167 0.0000e+00
     -0.617 -5.991e-07     8.5722     95.127      0.498   0.453123    -0.1224      6.927   330.7411 5.6813e-01    -0.2498     -0.605     -0.878    20.4487   998.1167 0.0000e+00
     -0.617 -2.416e-07     8.5737     95.142      0.497   0.451762    -0.1313      6.926   331.3392 5.7012e-01    -0.2648     -0.606     -0.879    20.4486   998.1167 0.0000e+00
     -0.617 -2.197e-08     8.5737     95.142      0.522   0.474571    -0.1325      6.925   331.9873 5.8068e-01    -0.2497     -0.605     -0.878    20.4488   998.1167 0.0000e+00
     -0.617 -1.997e-09     8.5740     95.146      0.523   0.475476    -0.1375      6.925   332.8132 5.9179e-01    -0.2309     -0.605     -0.878    20.4487   998.1167 0.0000e+00
     -0.617 -1.816e-10     8.5748     95.155      0.509   0.462701    -0.1397      6.926   333.7534 5.8607e-01    -0.2341     -0.605     -0.878    20.4488   998.1167 0.0000e+00
     -0.617 -1.651e-11     8.5748     95.155      0.491   0.446828    -0.1324      6.926   334.6655 5.7780e-01    -0.2554     -0.605     -0.878    20.4487   998.1167 0.0000e+00
     -0.617 -1.500e-12     8.5749     95.156      0.451   0.410270    -0.1365      6.925   335.5812 5.8928e-01    -0.2915     -0.605     -0.878    20.4486   998.1167 0.0000e+00
     -0.617 -1.364e-13     8.5755     95.163      0.441   0.400839    -0.1380      6.924   336.6515 5.9763e-01    -0.3107     -0.605     -0.878    20.4488   998.1167 0.0000e+00
     -0.617 -1.240e-14     8.5759     95.167      0.506   0.459512    -0.1241      6.925   337.7119 5.8851e-01    -0.2898     -0.605     -0.878    20.4488   998.1167 0.0000e+00
     -0.617 -1.127e-15     8.5752     95.160      0.535   0.486093    -0.1152      6.928   338.5080 5.7368e-01    -0.2688     -0.605     -0.878    20.4489   998.1166 0.0000e+00
     -0.617 -1.025e-16     8.5754     95.163      0.516   0.468793    -0.1173      6.930   338.7912 5.6085e-01    -0.2854     -0.605     -0.878    20.4488   998.1167 0.0000e+00
     -0.617 -9.315e-18     8.5768     95.178      0.554   0.503779    -0.1231      6.931   338.3834 5.6410e-01    -0.2950     -0.606     -0.879    20.4487   998.1167 0.0000e+00
     -0.617 -8.470e-19     8.5772     95.183      0.582   0.528952    -0.1255      6.929   337.7933 5.7603e-01    -0.2534     -0.605     -0.878    20.4489   998.1166 0.0000e+00
     -0.617 -7.730e-20     8.5768     95.178      0.572   0.519720    -0.1199      6.925   337.5920 5.8052e-01    -0.2410     -0.606     -0.879    20.4489   998.1166 0.0000e+00
     -0.617 -1.028e-20     8.5758     95.167      0.571   0.518871    -0.1154      6.923   337.6710 5.8233e-01    -0.2762     -0.605     -0.878    20.4489   998.1166 0.0000e+00
     -0.617 -3.672e-20     8.5746     95.153      0.571   0.518681    -0.1236      6.924   337.8876 5.7257e-01    -0.2865     -0.605     -0.878    20.4491   998.1166 0.0000e+00
     -0.617 -3.969e-19     8.5737     95.143      0.569   0.517428    -0.1331      6.925   338.4045 5.5322e-01    -0.2668     -0.605     -0.878    20.4490   998.1166 0.0000e+00
     -0.618 -4.366e-18     8.5732     95.138      0.554   0.503726    -0.1344      6.925   339.2749 5.5549e-01    -0.2339     -0.606     -0.879    20.4489   998.1166 0.0000e+00
     -0.618 -4.802e-17     8.5727     95.133      0.528   0.479724    -0.1394      6.924   340.3235 5.7504e-01    -0.2167     -0.606     -0.879    20.4489   998.1166 0.0000e+00
     -0.618 -5.283e-16     8.5718     95.122      0.529   0.480662    -0.1417      6.924   341.3607 5.8554e-01    -0.2235     -0.605     -0.878    20.4490   998.1166 0.0000e+00
     -0.618 -5.811e-15     8.5715     95.119      0.567   0.515060    -0.1357      6.924   342.3517 5.8259e-01    -0.2508     -0.606     -0.879    20.4490   998.1166 0.0000e+00
     -0.618 -6.392e-14     8.5717     95.122      0.567   0.515475    -0.1364      6.924   343.3570 5.7378e-01    -0.2840     -0.606     -0.879    20.4492   998.1165 0.0000e+00
     -0.618 -7.031e-13     8.5725     95.131      0.534   0.485675    -0.1415      6.924   344.3097 5.7073e-01    -0.2971     -0.606     -0.879    20.4492   998.1166 0.0000e+00
     -0.618 -7.734e-12     8.5737     95.145      0.588   0.534907    -0.1361      6.925   345.1803 5.7548e-01    -0.3108     -0.606     -0.879    20.4491   998.1166 0.0000e+00
     -0.618 -8.508e-11     8.5743     95.151      0.664   0.603863    -0.1234      6.926   346.1403 5.7400e-01    -0.3188     -0.605     -0.878    20.4492   998.1166 0.0000e+00
     -0.618 -9.358e-10     8.5748     95.156      0.615   0.559099    -0.1189      6.926   347.1413 5.6827e-01    -0.2957     -0.606     -0.879    20.4493   998.1165 0.0000e+00
     -0.618 -1.029e-08     8.5755     95.164      0.551   0.500546    -0.1242      6.925   347.9045 5.7205e-01    -0.2609     -0.606     -0.879    20.4494   998.1165 0.0000e+00
     -0.618 -1.132e-07     8.5756     95.166      0.582   0.529497    -0.1269      6.925   348.5715 5.8001e-01    -0.2586     -0.606     -0.879    20.4492   998.1166 0.0000e+00
     -0.618 -2.076e-07     8.5753     95.162      0.582   0.528996    -0.1257      6.924   349.4410 5.8442e-01    -0.2680     -0.606     -0.879    20.4493   998.1165 0.0000e+00
     -0.618 -1.132e-07     8.5753     95.162      0.544   0.494485    -0.1271      6.924   350.4157 5.8642e-01    -0.2755     -0.606     -0.879    20.4494   998.1165 0.0000e+00
     -0.618 -1.030e-08     8.5756     95.166      0.542   0.492388    -0.1350      6.924   351.4090 5.8529e-01    -0.3168     -0.606     -0.879    20.4495   998.1165 0.0000e+00
     -0.618 -9.360e-10     8.5751     95.160      0.554   0.503639    -0.1428      6.924   352.4168 5.8637e-01    -0.3415     -0.606     -0.879    20.4496   998.1165 0.0000e+00
     -0.618 -8.505e-11     8.5741     95.149      0.554   0.503802    -0.1433      6.924   353.3083 5.8996e-01    -0.3111     -0.606     -0.879    20.4496   998.1165 0.0000e+00
     -0.618 -7.735e-12     8.5739     95.147      0.544   0.494355    -0.1414      6.924   354.2720 5.8244e-01    -0.2772     -0.606     -0.879    20.4496   998.1165 0.0000e+00
     -0.618 -7.030e-13     8.5739     95.147      0.568   0.516141    -0.1284      6.924   355.3787 5.7378e-01    -0.2598     -0.606     -0.879    20.4496   998.1165 0.0000e+00
     -0.618 -6.390e-14     8.5743     95.152      0.565   0.513780    -0.1168      6.924   356.3653 5.7832e-01    -0.2646     -0.606     -0.879    20.4497   998.1165 0.0000e+00
     -0.618 -5.810e-15     8.5751     95.161      0.512   0.465797    -0.1216      6.924   357.3391 5.8145e-01    -0.3024     -0.606     -0.879    20.4497   998.1164 0.0000e+00
     -0.618 -5.280e-16     8.5748     95.157      0.487   0.442856    -0.1257      6.924   358.3763 5.7754e-01    -0.2903     -0.605     -0.878    20.4497   998.1165 0.0000e+00
     -0.618 -4.802e-17     8.5738     95.146      0.539   0.489837    -0.1238      6.924   359.3554 5.7926e-01    -0.2164     -0.606     -0.879    20.4498   998.1164 0.0000e+00
     -0.618 -4.365e-18     8.5734     95.142      0.580   0.526971    -0.1242      6.924   360.2295 5.8829e-01    -0.1967     -0.606     -0.879    20.4498   998.1164 0.0000e+00
     -0.618 -3.969e-19     8.5743     95.152      0.563   0.511684    -0.1307      6.924   361.0294 5.9344e-01    -0.2492     -0.606     -0.879    20.4499   998.1164 0.0000e+00
     -0.618 -3.608e-20     8.5749     95.159      0.475   0.431729    -0.1334      6.925   361.8855 5.9312e-01    -0.2933     -0.605     -0.878    20.4499   998.1164 0.0000e+00
     -0.618 -3.280e-21     8.5744     95.154      0.423   0.383891    -0.1307      6.925   362.8373 5.9512e-01    -0.3041     -0.606     -0.879    20.4499   998.1164 0.0000e+00
     -0.618 -2.982e-22     8.5732     95.140      0.484   0.440142    -0.1320      6.925   363.8481 5.9525e-01    -0.3136     -0.606     -0.879    20.4500   998.1164 0.0000e+00
     -0.618 -2.710e-23     8.5724     95.131      0.526   0.478271    -0.1324      6.925   364.8146 5.8839e-01    -0.3108     -0.606     -0.879    20.4501   998.1164 0.0000e+00
     -0.618 -2.464e-24     8.5726     95.133      0.581   0.528112    -0.1259      6.926   365.6615 5.8127e-01    -0.3031     -0.606     -0.879    20.4503   998.1163 0.0000e+00
     -0.618 -2.240e-25     8.5731     95.139      0.590   0.535892    -0.1238      6.926   366.4291 5.8237e-01    -0.3182     -0.606     -0.879    20.4504   998.1164 0.0000e+00
     -0.618 -2.037e-26     8.5736     95.145      0.560   0.508985    -0.1323      6.927   367.2984 5.8708e-01    -0.3292     -0.606     -0.879    20.4503   998.1163 0.0000e+00
     -0.618 -1.851e-27     8.5738     95.147      0.571   0.519584    -0.1342      6.929   368.3429 5.9053e-01    -0.3057     -0.606     -0.879    20.4503   998.1164 0.0000e+00
     -0.618 -1.683e-28     8.5743     95.152      0.591   0.537326    -0.1282      6.928   368.9914 5.9462e-01    -0.2625     -0.606     -0.879    20.4503   998.1163 0.0000e+00
     -0.618 -1.530e-29     8.5753     95.164      0.656   0.596785    -0.1299      6.924   368.8581 5.8865e-01    -0.2662     -0.606     -0.879    20.4504   998.1163 0.0000e+00
