* Sea-Bird SBE19plus  Data File:
* FileName = C:\DATA\081919_fcr_0006.hex
* Software version 2.8.0.119 SB_Terminal.dll
* Temperature SN = 7809
* Conductivity SN = 7809
* System UpLoad Time = Aug 20 2019 10:49:46
* <ApplicationData>
* <Seaterm232>
* <SoftwareVersion>2.8.0.119</SoftwareVersion>
* <BuildDate>07-Nov-2018</BuildDate>
* </Seaterm232>
* </ApplicationData>
* cast   6 19 Aug 2019 11:44:57 samples 2999 to 3893, avg = 1, stop = mag switch
# nquan = 16
# nvalues = 804                         
# units = specified
# name 0 = depFM: Depth [fresh water, m]
# name 1 = dz/dtM: Descent Rate [m/s]
# name 2 = sbeox0Mg/L: Oxygen, SBE 43 [mg/l]
# name 3 = sbeox0PS: Oxygen, SBE 43 [% saturation]
# name 4 = specc: Specific Conductance [uS/cm]
# name 5 = c0uS/cm: Conductivity [uS/cm]
# name 6 = flECO-AFL: Fluorescence, WET Labs ECO-AFL/FL [mg/m^3]
# name 7 = ph: pH
# name 8 = orp: Oxidation Reduction Potential [mV]
# name 9 = par/sat/log: PAR/Logarithmic, Satlantic
# name 10 = turbWETntu0: Turbidity, WET Labs ECO [NTU]
# name 11 = prdM: Pressure, Strain Gauge [db]
# name 12 = prdE: Pressure, Strain Gauge [psi]
# name 13 = tv290C: Temperature [ITS-90, deg C]
# name 14 = density00: Density [density, kg/m^3]
# name 15 = flag:  0.000e+00
# span 0 =     -0.550,      6.688       
# span 1 =     -0.009,      0.177       
# span 2 =     0.0902,    11.3178       
# span 3 =      0.867,    144.562       
# span 4 =      3.661,     75.636       
# span 5 =   3.409684,  58.888378       
# span 6 =    -0.6347,    12.9549       
# span 7 =      7.395,      9.127       
# span 8 =    82.6988,   252.7003       
# span 9 = 1.2354e-01, 1.8111e+03       
# span 10 =    -5.8443,    34.5588      
# span 11 =     -0.540,      6.559      
# span 12 =     -0.783,      9.513      
# span 13 =    11.9055,    28.3619      
# span 14 =   996.1509,   999.5618      
# span 15 = 0.0000e+00, 0.0000e+00      
# interval = seconds: 0.25
# start_time = Aug 19 2019 11:44:57 [Instrument's time stamp, header]
# bad_flag = -9.990e-29
# <Sensors count="9" >
#   <sensor Channel="1" >
#     <!-- Count, Temperature -->
#     <TemperatureSensor SensorID="58" >
#       <SerialNumber>7809</SerialNumber>
#       <CalibrationDate>24-Mar-19</CalibrationDate>
#       <A0>1.21792325e-003</A0>
#       <A1>2.81669265e-004</A1>
#       <A2>-1.60333336e-006</A2>
#       <A3>1.98414625e-007</A3>
#       <Slope>1.00000000</Slope>
#       <Offset>0.0000</Offset>
#     </TemperatureSensor>
#   </sensor>
#   <sensor Channel="2" >
#     <!-- Frequency 0, Conductivity -->
#     <ConductivitySensor SensorID="3" >
#       <SerialNumber>7809</SerialNumber>
#       <CalibrationDate>24-Mar-19</CalibrationDate>
#       <UseG_J>1</UseG_J>
#       <!-- Cell const and series R are applicable only for wide range sensors. -->
#       <SeriesR>0.0000</SeriesR>
#       <CellConst>2000.0000</CellConst>
#       <ConductivityType>0</ConductivityType>
#       <Coefficients equation="0" >
#         <A>0.00000000e+000</A>
#         <B>0.00000000e+000</B>
#         <C>0.00000000e+000</C>
#         <D>0.00000000e+000</D>
#         <M>0.0</M>
#         <CPcor>-9.57000000e-008</CPcor>
#       </Coefficients>
#       <Coefficients equation="1" >
#         <G>-1.00589325e+000</G>
#         <H>1.26816302e-001</H>
#         <I>-1.51560448e-004</I>
#         <J>2.67137274e-005</J>
#         <CPcor>-9.57000000e-008</CPcor>
#         <CTcor>3.2500e-006</CTcor>
#         <!-- WBOTC not applicable unless ConductivityType = 1. -->
#         <WBOTC>0.00000000e+000</WBOTC>
#       </Coefficients>
#       <Slope>1.00000000</Slope>
#       <Offset>0.00000</Offset>
#     </ConductivitySensor>
#   </sensor>
#   <sensor Channel="3" >
#     <!-- Count, Pressure, Strain Gauge -->
#     <PressureSensor SensorID="46" >
#       <SerialNumber>7809</SerialNumber>
#       <CalibrationDate>11-Mar-19</CalibrationDate>
#       <PA0>4.56561833e-002</PA0>
#       <PA1>4.85095118e-004</PA1>
#       <PA2>-2.88327090e-012</PA2>
#       <PTEMPA0>-5.48784562e+001</PTEMPA0>
#       <PTEMPA1>5.53756816e+001</PTEMPA1>
#       <PTEMPA2>-5.86727098e-001</PTEMPA2>
#       <PTCA0>5.25246745e+005</PTCA0>
#       <PTCA1>1.22304214e+001</PTCA1>
#       <PTCA2>-3.56745036e-001</PTCA2>
#       <PTCB0>2.51668750e+001</PTCB0>
#       <PTCB1>3.75000000e-004</PTCB1>
#       <PTCB2>0.00000000e+000</PTCB2>
#       <Offset>0.000000</Offset>
#     </PressureSensor>
#   </sensor>
#   <sensor Channel="4" >
#     <!-- A/D voltage 0, Oxygen, SBE 43 -->
#     <OxygenSensor SensorID="38" >
#       <SerialNumber>0434</SerialNumber>
#       <CalibrationDate>13-Apr-19</CalibrationDate>
#       <Use2007Equation>1</Use2007Equation>
#       <CalibrationCoefficients equation="0" >
#         <!-- Coefficients for Owens-Millard equation. -->
#         <Boc>0.0000</Boc>
#         <Soc>0.0000e+000</Soc>
#         <offset>0.0000</offset>
#         <Pcor>0.00e+000</Pcor>
#         <Tcor>0.0000</Tcor>
#         <Tau>0.0</Tau>
#       </CalibrationCoefficients>
#       <CalibrationCoefficients equation="1" >
#         <!-- Coefficients for Sea-Bird equation - SBE calibration in 2007 and later. -->
#         <Soc>4.2007e-001</Soc>
#         <offset>-0.6109</offset>
#         <A>-4.3656e-003</A>
#         <B> 1.7017e-004</B>
#         <C>-2.5341e-006</C>
#         <D0> 2.5826e+000</D0>
#         <D1> 1.92634e-004</D1>
#         <D2>-4.64803e-002</D2>
#         <E> 3.6000e-002</E>
#         <Tau20> 1.1800</Tau20>
#         <H1>-3.3000e-002</H1>
#         <H2> 5.0000e+003</H2>
#         <H3> 1.4500e+003</H3>
#       </CalibrationCoefficients>
#     </OxygenSensor>
#   </sensor>
#   <sensor Channel="5" >
#     <!-- A/D voltage 1, PAR/Logarithmic, Satlantic -->
#     <PARLog_SatlanticSensor SensorID="76" >
#       <SerialNumber>1122</SerialNumber>
#       <CalibrationDate>08-May-2019</CalibrationDate>
#       <a0>9.7456e-001</a0>
#       <a1>8.1640e-001</a1>
#       <Im>1.3589e+000</Im>
#       <Multiplier>1.0000e+000</Multiplier>
#     </PARLog_SatlanticSensor>
#   </sensor>
#   <sensor Channel="6" >
#     <!-- A/D voltage 2, pH -->
#     <pH_Sensor SensorID="43" >
#       <SerialNumber>0363</SerialNumber>
#       <CalibrationDate>15-Apr-19</CalibrationDate>
#       <Slope>4.5952</Slope>
#       <Offset>2.5370</Offset>
#     </pH_Sensor>
#   </sensor>
#   <sensor Channel="7" >
#     <!-- A/D voltage 3, Oxidation Reduction Potential -->
#     <OxidationReductionPotentialSensor SensorID="41" >
#       <SerialNumber>0363</SerialNumber>
#       <CalibrationDate>15-Apr-19</CalibrationDate>
#       <B>2.499480</B>
#       <M>-0.496195</M>
#       <Offset>0.0</Offset>
#     </OxidationReductionPotentialSensor>
#   </sensor>
#   <sensor Channel="8" >
#     <!-- A/D voltage 4, Fluorometer, WET Labs ECO-AFL/FL -->
#     <FluoroWetlabECO_AFL_FL_Sensor SensorID="20" >
#       <SerialNumber>FLNTURT-2496</SerialNumber>
#       <CalibrationDate>08-May-2019</CalibrationDate>
#       <ScaleFactor>5.00000000e+001</ScaleFactor>
#       <!-- Dark output -->
#       <Vblank>0.0550</Vblank>
#     </FluoroWetlabECO_AFL_FL_Sensor>
#   </sensor>
#   <sensor Channel="9" >
#     <!-- A/D voltage 5, Turbidity Meter, WET Labs, ECO-NTU -->
#     <TurbidityMeter SensorID="67" >
#       <SerialNumber>FLNTURT-2496</SerialNumber>
#       <CalibrationDate>08-May-2019</CalibrationDate>
#       <ScaleFactor>189.000000</ScaleFactor>
#       <!-- Dark output -->
#       <DarkVoltage>0.071000</DarkVoltage>
#     </TurbidityMeter>
#   </sensor>
# </Sensors>
# datcnv_date = Aug 20 2019 10:51:57, 7.26.7.129 [datcnv_vars = 15]
# datcnv_in = C:\DATA\081919_fcr45.hex C:\DATA\SBE19plusV2_7809.xmlcon
# datcnv_skipover = 0
# datcnv_ox_hysteresis_correction = yes
# datcnv_ox_tau_correction = yes
# filter_date = Aug 20 2019 10:52:12, 7.26.7.129
# filter_in = C:\DATA\081919_fcr45.cnv
# filter_low_pass_tc_A = 0.030
# filter_low_pass_tc_B = 0.150
# filter_low_pass_A_vars = prdM prdE tv290C density00
# filter_low_pass_B_vars = depFM dz/dtM sbeox0Mg/L sbeox0PS specc c0uS/cm flECO-AFL ph orp par/sat/log turbWETntu0
# alignctd_date = Aug 20 2019 10:52:31, 7.26.7.129
# alignctd_in = C:\DATA\081919_fcr45.cnv
# alignctd_adv = dz/dtM 1.000, sbeox0Mg/L 1.000, sbeox0PS 1.000, specc 1.000, c0uS/cm 1.000, flECO-AFL 1.000, ph 1.000, orp 1.000, turbWETntu0 1.000                                                                                 
# file_type = ascii
*END*
     -0.549 3.3070e-24     7.4347     84.315      4.169   3.881864    -0.1240      7.609   106.3720 1.8762e+02    -0.5151     -0.538     -0.780    21.5430   997.8808 0.0000e+00
     -0.549 3.6377e-23     7.4218     84.171      3.770   3.510755    -0.1213      7.616   104.7056 1.9609e+02    -0.5137     -0.538     -0.781    21.5496   997.8792 0.0000e+00
     -0.549 4.0014e-22     7.4019     83.949      3.661   3.409684    -0.1153      7.622   102.9068 2.0222e+02    -0.5163     -0.538     -0.781    21.5549   997.8781 0.0000e+00
     -0.549 4.4016e-21     7.3844     83.753      4.149   3.863831    -0.1218      7.627   101.4872 2.0404e+02    -0.5136     -0.538     -0.781    21.5572   997.8775 0.0000e+00
     -0.549 4.8417e-20     7.3770     83.673      7.419   6.910625    -0.1299      7.629   101.2213 2.0403e+02    -0.4816     -0.538     -0.781    21.5595   997.8769 0.0000e+00
     -0.549 5.3259e-19     7.3732     83.636     14.425  13.436629    -0.1268      7.630   101.5846 2.0344e+02    -0.4556     -0.539     -0.782    21.5607   997.8764 0.0000e+00
     -0.549 5.8585e-18     7.3638     83.540     20.595  19.186267    -0.1190      7.634   101.5774 2.0092e+02    -0.4945     -0.539     -0.781    21.5627   997.8761 0.0000e+00
     -0.549 6.4444e-17     7.3471     83.383     20.034  18.668427    -0.1225      7.639   101.1348 1.9309e+02    -0.5595     -0.539     -0.781    21.5638   997.8757 0.0000e+00
     -0.549 7.0888e-16     7.3254     83.246     14.688  13.703504    -0.1342      7.643   100.4492 1.8298e+02    -0.5530     -0.539     -0.781    21.5672   997.8755 0.0000e+00
     -0.549 7.7977e-15     7.3089     83.243     11.715  10.960790    -0.1388      7.644    99.4820 1.7754e+02    -0.4815     -0.539     -0.782    21.5679   997.8777 0.0000e+00
     -0.549 8.5774e-14     7.3107     83.419     11.257  10.554284    -0.1344      7.642    98.5609 1.7720e+02    -0.4490     -0.539     -0.781    21.5743   997.8789 0.0000e+00
     -0.549 9.4352e-13     7.3311     83.729     12.267  11.514274    -0.1240      7.638    97.4869 1.7919e+02    -0.4870     -0.539     -0.781    21.5768   997.8782 0.0000e+00
     -0.550 1.0379e-11     7.3611     84.113     13.702  12.867177    -0.1179      7.636    95.4437 1.8206e+02    -0.5480     -0.539     -0.782    21.6354   997.8620 0.0000e+00
     -0.550 1.1417e-10     7.3966     84.570     12.987  12.203567    -0.1207      7.632    94.1623 1.8547e+02    -0.5641     -0.539     -0.782    21.7933   997.8264 0.0000e+00
     -0.550 1.2558e-09     7.4396     85.125     12.341  11.606459    -0.1234      7.627    95.7596 1.9056e+02    -0.5509     -0.539     -0.781    21.8988   997.8026 0.0000e+00
     -0.550 1.3814e-08     7.4896     85.746     12.066  11.354524    -0.1511      7.623    98.7535 1.9768e+02    -0.5523     -0.539     -0.782    21.9289   997.7958 0.0000e+00
     -0.550 1.5195e-07     7.5407     86.359     11.276  10.615597    -0.2045      7.621   101.4518 2.0732e+02    -0.5147     -0.539     -0.782    21.9455   997.7935 0.0000e+00
     -0.550      0.000     7.5876     86.912     10.378   9.772146    -0.2315      7.618   104.1214 2.4411e+02    -0.4570     -0.539     -0.782    21.9739   997.7859 0.0000e+00
     -0.550      0.000     7.6276     87.379      8.834   8.319273    -0.1819      7.615   105.9934 3.3580e+02    -0.5763     -0.540     -0.783    22.0243   997.7745 0.0000e+00
     -0.550      0.000     7.6600     87.760      8.031   7.564139     0.3941      7.596    96.9846 3.9274e+02    -1.9567     -0.539     -0.782    22.0554   997.7675 0.0000e+00
     -0.550      0.002     7.6850     88.089      8.614   8.121188     1.4365      7.595    82.6988 4.3443e+02    -4.3982     -0.539     -0.782    22.0653   997.7647 0.0000e+00
     -0.550      0.009     7.6763     88.357     10.310   9.793861     2.0002      7.699   115.3237 5.9729e+02    -5.7145     -0.539     -0.782    22.0779   997.7621 0.0000e+00
     -0.550      0.024     7.5891     88.478     16.835  16.315136     2.0507      7.899   189.7093 6.8340e+02    -5.8443     -0.539     -0.782    22.0776   997.7614 0.0000e+00
     -0.549      0.046     7.4413     88.436     27.980  27.614700     1.9952      8.099   231.9124 6.1705e+02    -5.7711     -0.540     -0.783    22.0904   997.7583 0.0000e+00
     -0.543      0.073     7.2979     88.298     35.993  36.051720     1.3118      8.253   239.5395 7.1256e+02    -4.9936     -0.538     -0.781    22.0759   997.7619 0.0000e+00
     -0.521      0.101     7.1814     88.101     38.373  38.957757     0.0746      8.366   243.4691 9.7590e+02    -3.6209     -0.518     -0.752    22.1196   997.7522 0.0000e+00
     -0.484      0.129     7.0824     87.861     38.720  39.776789    -0.5919      8.446   245.4389 1.1644e+03    -2.8073     -0.475     -0.691    22.8466   997.5848 0.0000e+00
     -0.439      0.154     6.9918     87.572     38.774  40.241986    -0.6347      8.494   228.6821 1.2651e+03    -1.8745     -0.430     -0.624    24.1064   997.2858 0.0000e+00
     -0.394      0.171     6.9048     87.227     38.567  40.393217    -0.3995      8.520   211.8245 1.3580e+03     7.5922     -0.387     -0.561    25.0740   997.0448 0.0000e+00
     -0.348      0.177     6.8306     86.888     38.170  40.272733     0.0583      8.544   231.0732 1.4526e+03    24.9388     -0.343     -0.498    25.7809   996.8607 0.0000e+00
     -0.300      0.172     6.7794     86.634     37.718  39.991871     0.3137      8.563   251.7387 1.5316e+03    34.3654     -0.296     -0.429    26.3887   996.6993 0.0000e+00
     -0.251      0.157     6.7514     86.504     37.363  39.727390     0.3557      8.572   252.7003 1.5865e+03    34.5588     -0.245     -0.355    26.8934   996.5624 0.0000e+00
     -0.206      0.136     6.7438     86.495     37.155  39.550883     0.7137      8.575   249.9272 1.6369e+03    27.2772     -0.199     -0.289    27.3969   996.4235 0.0000e+00
     -0.170      0.110     6.7515     86.576     37.064  39.444835     1.3921      8.575   230.2548 1.6787e+03    13.8348     -0.161     -0.235    27.8056   996.3089 0.0000e+00
     -0.147      0.084     6.7663     86.715     36.983  39.333880     1.7694      8.572   195.4392 1.6890e+03     6.5251     -0.140     -0.202    28.0438   996.2414 0.0000e+00
     -0.136      0.060     6.7810     86.876     36.834  39.161485     1.8162      8.574   193.6097 1.6752e+03     5.8822     -0.132     -0.191    28.1881   996.2001 0.0000e+00
     -0.131      0.041     6.7940     87.012     36.705  39.010882     1.8282      8.583   224.3957 1.6637e+03     5.7666     -0.129     -0.187    28.2477   996.1831 0.0000e+00
     -0.127      0.030     6.8089     87.113     36.710  38.972957     1.8276      8.584   223.5998 1.6717e+03     5.6519     -0.127     -0.184    28.2079   996.1944 0.0000e+00
     -0.121      0.026     6.8241     87.184     36.870  39.083745     1.8174      8.576   190.0952 1.7043e+03     5.6095     -0.120     -0.174    28.1623   996.2075 0.0000e+00
     -0.112      0.029     6.8324     87.235     37.072  39.271156     1.8094      8.573   171.7097 1.7415e+03     5.6141     -0.109     -0.156    28.1492   996.2112 0.0000e+00
     -0.107      0.033     6.8329     87.291     37.229  39.461454     1.8088      8.577   184.7383 1.7546e+03     5.6420     -0.105     -0.152    28.1526   996.2102 0.0000e+00
     -0.101      0.035     6.8279     87.330     37.379  39.670695     1.8183      8.579   201.4428 1.7596e+03     5.7175     -0.103     -0.150    28.0922   996.2275 0.0000e+00
     -0.089      0.035     6.8233     87.370     37.487  39.833258     1.8295      8.575   189.3862 1.7757e+03     5.7740     -0.088     -0.128    27.9711   996.2620 0.0000e+00
     -0.075      0.033     6.8419     87.673     37.524  39.903517     1.8221      8.572   170.4309 1.7798e+03     5.7676     -0.071     -0.104    27.9320   996.2732 0.0000e+00
     -0.065      0.029     6.9118     88.613     37.547  39.948906     1.8160      8.573   165.3283 1.7566e+03     5.7381     -0.061     -0.089    27.9814   996.2592 0.0000e+00
     -0.060      0.022     7.0158     89.988     37.577  40.001191     1.8338      8.574   164.1723 1.7143e+03     5.7452     -0.058     -0.084    28.0594   996.2372 0.0000e+00
     -0.055      0.013     7.1138     91.274     37.589  40.027869     1.8641      8.574   163.5087 1.6538e+03     5.7882     -0.055     -0.079    28.1338   996.2161 0.0000e+00
     -0.053      0.007     7.2105     92.532     37.572  40.017556     1.8785      8.573   163.1549 1.5208e+03     5.7994     -0.048     -0.070    28.1703   996.2057 0.0000e+00
     -0.055      0.006     7.3139     93.882     37.549  40.003479     1.8692      8.571   162.9059 1.3737e+03     5.7820     -0.053     -0.077    28.1891   996.2004 0.0000e+00
     -0.058      0.008     7.4124     95.175     37.520  39.984641     1.8476      8.570   162.5636 1.2115e+03     5.7742     -0.060     -0.086    28.2237   996.1904 0.0000e+00
     -0.058      0.013     7.4903     96.193     37.449  39.916769     1.8249      8.572   162.1995 1.0778e+03     5.7709     -0.058     -0.083    28.2423   996.1851 0.0000e+00
     -0.053      0.017     7.5346     96.765     37.354  39.817676     1.8209      8.577   161.8599 1.2408e+03     5.7753     -0.053     -0.078    28.2432   996.1848 0.0000e+00
     -0.044      0.019     7.5680     97.185     37.284  39.738745     1.8241      8.583   161.5541 1.4528e+03     5.7936     -0.044     -0.064    28.2613   996.1797 0.0000e+00
     -0.034      0.018     7.6168     97.811     37.270  39.724190     1.8291      8.590   161.4266 1.3929e+03     5.7636     -0.033     -0.047    28.2800   996.1744 0.0000e+00
     -0.027      0.014     7.6698     98.508     37.305  39.768655     1.8554      8.595   161.5236 1.2518e+03     5.6736     -0.025     -0.036    28.2918   996.1710 0.0000e+00
     -0.024      0.008     7.7053     98.976     37.300  39.768526     1.8814      8.599   161.5217 1.1152e+03     5.6236     -0.022     -0.031    28.2959   996.1698 0.0000e+00
     -0.027      0.003     7.7148     99.092     37.260  39.722646     1.8928      8.604   161.4038 8.7718e+02     5.6184     -0.026     -0.039    28.2831   996.1734 0.0000e+00
     -0.032     -0.002     7.6994     98.883     37.264  39.721767     1.8805      8.609   161.3891 6.8597e+02     5.6429     -0.033     -0.048    28.2806   996.1740 0.0000e+00
     -0.033     -0.004     7.6659     98.448     37.299  39.757887     1.8448      8.614   161.4304 7.4431e+02     5.7242     -0.034     -0.049    28.2965   996.1696 0.0000e+00
     -0.032     -0.004     7.6205     97.866     37.318  39.778489     1.8260      8.618   161.4725 8.7466e+02     5.8145     -0.031     -0.044    28.3073   996.1665 0.0000e+00
     -0.032     -0.004     7.5684     97.199     37.318  39.780412     1.8263      8.622   161.5538 8.7088e+02     5.8492     -0.030     -0.045    28.2998   996.1685 0.0000e+00
     -0.033     -0.005     7.5235     96.629     37.317  39.781138     1.8223      8.626   161.7254 8.1925e+02     5.7517     -0.032     -0.047    28.2882   996.1719 0.0000e+00
     -0.034     -0.005     7.5002     96.337     37.320  39.787277     1.8127      8.629   161.9125 7.6272e+02     5.5857     -0.032     -0.047    28.2885   996.1718 0.0000e+00
     -0.036     -0.005     7.5072     96.440     37.318  39.791162     1.8054      8.632   162.0087 6.5692e+02     5.5126     -0.035     -0.051    28.2898   996.1715 0.0000e+00
