* Sea-Bird SBE19plus  Data File:
* FileName = C:\DATA\081919_fcr50_0001.hex
* Software version 2.8.0.119 SB_Terminal.dll
* Temperature SN = 7809
* Conductivity SN = 7809
* System UpLoad Time = Aug 19 2019 09:53:56
* <ApplicationData>
* <Seaterm232>
* <SoftwareVersion>2.8.0.119</SoftwareVersion>
* <BuildDate>07-Nov-2018</BuildDate>
* </Seaterm232>
* </ApplicationData>
* cast   1 19 Aug 2019 09:40:08 samples 1 to 966, avg = 1, stop = mag switch
# nquan = 16
# nvalues = 825                         
# units = specified
# name 0 = depFM: Depth [fresh water, m]
# name 1 = dz/dtM: Descent Rate [m/s]
# name 2 = sbeox0Mg/L: Oxygen, SBE 43 [mg/l]
# name 3 = sbeox0PS: Oxygen, SBE 43 [% saturation]
# name 4 = specc: Specific Conductance [uS/cm]
# name 5 = c0uS/cm: Conductivity [uS/cm]
# name 6 = flECO-AFL: Fluorescence, WET Labs ECO-AFL/FL [mg/m^3]
# name 7 = ph: pH
# name 8 = orp: Oxidation Reduction Potential [mV]
# name 9 = par/sat/log: PAR/Logarithmic, Satlantic
# name 10 = turbWETntu0: Turbidity, WET Labs ECO [NTU]
# name 11 = prdM: Pressure, Strain Gauge [db]
# name 12 = prdE: Pressure, Strain Gauge [psi]
# name 13 = tv290C: Temperature [ITS-90, deg C]
# name 14 = density00: Density [density, kg/m^3]
# name 15 = flag:  0.000e+00
# span 0 =     -0.564,      9.246       
# span 1 =     -2.941,      0.262       
# span 2 =    -0.3830,    10.4323       
# span 3 =     -4.491,    131.495       
# span 4 =      1.868,     67.383       
# span 5 =   1.823281,  52.231112       
# span 6 =    -0.2311,     8.0053       
# span 7 =      6.520,      9.397       
# span 8 =  -805.0052,   617.8823       
# span 9 = 1.2356e-01, 1.3673e+03       
# span 10 =    -0.4996,   894.0179      
# span 11 =     -0.553,      9.067      
# span 12 =     -0.802,     13.151      
# span 13 =    11.9784,    27.4632      
# span 14 =   996.4053,   999.5644      
# span 15 = 0.0000e+00, 0.0000e+00      
# interval = seconds: 0.25
# start_time = Aug 19 2019 09:40:08 [Instrument's time stamp, header]
# bad_flag = -9.990e-29
# <Sensors count="9" >
#   <sensor Channel="1" >
#     <!-- Count, Temperature -->
#     <TemperatureSensor SensorID="58" >
#       <SerialNumber>7809</SerialNumber>
#       <CalibrationDate>24-Mar-19</CalibrationDate>
#       <A0>1.21792325e-003</A0>
#       <A1>2.81669265e-004</A1>
#       <A2>-1.60333336e-006</A2>
#       <A3>1.98414625e-007</A3>
#       <Slope>1.00000000</Slope>
#       <Offset>0.0000</Offset>
#     </TemperatureSensor>
#   </sensor>
#   <sensor Channel="2" >
#     <!-- Frequency 0, Conductivity -->
#     <ConductivitySensor SensorID="3" >
#       <SerialNumber>7809</SerialNumber>
#       <CalibrationDate>24-Mar-19</CalibrationDate>
#       <UseG_J>1</UseG_J>
#       <!-- Cell const and series R are applicable only for wide range sensors. -->
#       <SeriesR>0.0000</SeriesR>
#       <CellConst>2000.0000</CellConst>
#       <ConductivityType>0</ConductivityType>
#       <Coefficients equation="0" >
#         <A>0.00000000e+000</A>
#         <B>0.00000000e+000</B>
#         <C>0.00000000e+000</C>
#         <D>0.00000000e+000</D>
#         <M>0.0</M>
#         <CPcor>-9.57000000e-008</CPcor>
#       </Coefficients>
#       <Coefficients equation="1" >
#         <G>-1.00589325e+000</G>
#         <H>1.26816302e-001</H>
#         <I>-1.51560448e-004</I>
#         <J>2.67137274e-005</J>
#         <CPcor>-9.57000000e-008</CPcor>
#         <CTcor>3.2500e-006</CTcor>
#         <!-- WBOTC not applicable unless ConductivityType = 1. -->
#         <WBOTC>0.00000000e+000</WBOTC>
#       </Coefficients>
#       <Slope>1.00000000</Slope>
#       <Offset>0.00000</Offset>
#     </ConductivitySensor>
#   </sensor>
#   <sensor Channel="3" >
#     <!-- Count, Pressure, Strain Gauge -->
#     <PressureSensor SensorID="46" >
#       <SerialNumber>7809</SerialNumber>
#       <CalibrationDate>11-Mar-19</CalibrationDate>
#       <PA0>4.56561833e-002</PA0>
#       <PA1>4.85095118e-004</PA1>
#       <PA2>-2.88327090e-012</PA2>
#       <PTEMPA0>-5.48784562e+001</PTEMPA0>
#       <PTEMPA1>5.53756816e+001</PTEMPA1>
#       <PTEMPA2>-5.86727098e-001</PTEMPA2>
#       <PTCA0>5.25246745e+005</PTCA0>
#       <PTCA1>1.22304214e+001</PTCA1>
#       <PTCA2>-3.56745036e-001</PTCA2>
#       <PTCB0>2.51668750e+001</PTCB0>
#       <PTCB1>3.75000000e-004</PTCB1>
#       <PTCB2>0.00000000e+000</PTCB2>
#       <Offset>0.000000</Offset>
#     </PressureSensor>
#   </sensor>
#   <sensor Channel="4" >
#     <!-- A/D voltage 0, Oxygen, SBE 43 -->
#     <OxygenSensor SensorID="38" >
#       <SerialNumber>0434</SerialNumber>
#       <CalibrationDate>13-Apr-19</CalibrationDate>
#       <Use2007Equation>1</Use2007Equation>
#       <CalibrationCoefficients equation="0" >
#         <!-- Coefficients for Owens-Millard equation. -->
#         <Boc>0.0000</Boc>
#         <Soc>0.0000e+000</Soc>
#         <offset>0.0000</offset>
#         <Pcor>0.00e+000</Pcor>
#         <Tcor>0.0000</Tcor>
#         <Tau>0.0</Tau>
#       </CalibrationCoefficients>
#       <CalibrationCoefficients equation="1" >
#         <!-- Coefficients for Sea-Bird equation - SBE calibration in 2007 and later. -->
#         <Soc>4.2007e-001</Soc>
#         <offset>-0.6109</offset>
#         <A>-4.3656e-003</A>
#         <B> 1.7017e-004</B>
#         <C>-2.5341e-006</C>
#         <D0> 2.5826e+000</D0>
#         <D1> 1.92634e-004</D1>
#         <D2>-4.64803e-002</D2>
#         <E> 3.6000e-002</E>
#         <Tau20> 1.1800</Tau20>
#         <H1>-3.3000e-002</H1>
#         <H2> 5.0000e+003</H2>
#         <H3> 1.4500e+003</H3>
#       </CalibrationCoefficients>
#     </OxygenSensor>
#   </sensor>
#   <sensor Channel="5" >
#     <!-- A/D voltage 1, PAR/Logarithmic, Satlantic -->
#     <PARLog_SatlanticSensor SensorID="76" >
#       <SerialNumber>1122</SerialNumber>
#       <CalibrationDate>08-May-2019</CalibrationDate>
#       <a0>9.7456e-001</a0>
#       <a1>8.1640e-001</a1>
#       <Im>1.3589e+000</Im>
#       <Multiplier>1.0000e+000</Multiplier>
#     </PARLog_SatlanticSensor>
#   </sensor>
#   <sensor Channel="6" >
#     <!-- A/D voltage 2, pH -->
#     <pH_Sensor SensorID="43" >
#       <SerialNumber>0363</SerialNumber>
#       <CalibrationDate>15-Apr-19</CalibrationDate>
#       <Slope>4.5952</Slope>
#       <Offset>2.5370</Offset>
#     </pH_Sensor>
#   </sensor>
#   <sensor Channel="7" >
#     <!-- A/D voltage 3, Oxidation Reduction Potential -->
#     <OxidationReductionPotentialSensor SensorID="41" >
#       <SerialNumber>0363</SerialNumber>
#       <CalibrationDate>15-Apr-19</CalibrationDate>
#       <B>2.499480</B>
#       <M>-0.496195</M>
#       <Offset>0.0</Offset>
#     </OxidationReductionPotentialSensor>
#   </sensor>
#   <sensor Channel="8" >
#     <!-- A/D voltage 4, Fluorometer, WET Labs ECO-AFL/FL -->
#     <FluoroWetlabECO_AFL_FL_Sensor SensorID="20" >
#       <SerialNumber>FLNTURT-2496</SerialNumber>
#       <CalibrationDate>08-May-2019</CalibrationDate>
#       <ScaleFactor>5.00000000e+001</ScaleFactor>
#       <!-- Dark output -->
#       <Vblank>0.0550</Vblank>
#     </FluoroWetlabECO_AFL_FL_Sensor>
#   </sensor>
#   <sensor Channel="9" >
#     <!-- A/D voltage 5, Turbidity Meter, WET Labs, ECO-NTU -->
#     <TurbidityMeter SensorID="67" >
#       <SerialNumber>FLNTURT-2496</SerialNumber>
#       <CalibrationDate>08-May-2019</CalibrationDate>
#       <ScaleFactor>189.000000</ScaleFactor>
#       <!-- Dark output -->
#       <DarkVoltage>0.071000</DarkVoltage>
#     </TurbidityMeter>
#   </sensor>
# </Sensors>
# datcnv_date = Aug 19 2019 09:55:32, 7.26.7.129 [datcnv_vars = 15]
# datcnv_in = C:\DATA\081919_fcr50.hex C:\DATA\SBE19plusV2_7809.xmlcon
# datcnv_skipover = 0
# datcnv_ox_hysteresis_correction = yes
# datcnv_ox_tau_correction = yes
# filter_date = Aug 19 2019 09:55:51, 7.26.7.129
# filter_in = C:\DATA\081919_fcr50.cnv
# filter_low_pass_tc_A = 0.030
# filter_low_pass_tc_B = 0.150
# filter_low_pass_A_vars = prdM prdE tv290C density00
# filter_low_pass_B_vars = depFM dz/dtM sbeox0Mg/L sbeox0PS specc c0uS/cm flECO-AFL ph orp par/sat/log turbWETntu0
# alignctd_date = Aug 19 2019 09:56:13, 7.26.7.129
# alignctd_in = C:\DATA\081919_fcr50.cnv
# alignctd_adv = dz/dtM 1.000, sbeox0Mg/L 1.000, sbeox0PS 1.000, specc 1.000, c0uS/cm 1.000, flECO-AFL 1.000, ph 1.000, orp 1.000, turbWETntu0 1.000                                                                                 
# file_type = ascii
*END*
     -0.564 2.7991e-11     7.9555     94.149      1.931   1.883862    -0.1144      6.520  -805.0052 1.2772e+03    -0.3352     -0.553     -0.802    23.7859   997.3569 0.0000e+00
     -0.563 3.0790e-10     7.9550     94.144      1.919   1.872171    -0.1060      6.647  -615.6463 1.2899e+03    -0.2664     -0.552     -0.801    23.7889   997.3562 0.0000e+00
     -0.563 3.3869e-09     7.9555     94.151      1.918   1.871949    -0.1033      6.699  -540.4585 1.3254e+03    -0.2146     -0.552     -0.801    23.7917   997.3554 0.0000e+00
     -0.563 3.7255e-08     7.9565     94.162      1.928   1.881175    -0.0985      6.698  -522.7975 1.3566e+03    -0.1999     -0.553     -0.802    23.7932   997.3551 0.0000e+00
     -0.563 4.0981e-07     7.9568     94.166      1.903   1.856991    -0.1000      6.697  -506.0449 1.3673e+03    -0.2204     -0.552     -0.801    23.7944   997.3548 0.0000e+00
     -0.563      0.000     7.9563     94.161      1.878   1.832996    -0.1129      6.693  -497.5926 1.3452e+03    -0.2652     -0.552     -0.801    23.7948   997.3547 0.0000e+00
     -0.563      0.000     7.9569     94.170      1.890   1.844506    -0.1241      6.683  -506.2110 1.0781e+03    -0.2836     -0.552     -0.801    23.7952   997.3546 0.0000e+00
     -0.563      0.001     7.9584     94.190      1.915   1.869426    -0.1234      6.676  -519.1340 8.1483e+02    -0.3115     -0.552     -0.801    23.7953   997.3545 0.0000e+00
     -0.563      0.001     7.9585     94.194      1.927   1.880865    -0.1217      6.672  -533.9049 8.5463e+02    -0.4060     -0.552     -0.801    23.7957   997.3544 0.0000e+00
     -0.563      0.001     7.9579     94.189      1.902   1.856087    -0.1297      6.669  -549.8094 6.9224e+02    -0.4750     -0.552     -0.801    23.7958   997.3543 0.0000e+00
     -0.562      0.001     7.9583     94.194      1.868   1.823281    -0.1329      6.669  -565.9410 5.9634e+02    -0.4909     -0.552     -0.800    23.7974   997.3540 0.0000e+00
     -0.562      0.001     7.9582     94.196      1.909   1.864386    -0.1609      6.668  -575.7155 8.5191e+02    -0.4996     -0.551     -0.799    23.7979   997.3539 0.0000e+00
     -0.562      0.001     7.9563     94.181      2.344   2.289720    -0.2164      6.669  -520.6923 8.4924e+02    -0.3515     -0.551     -0.799    23.8006   997.3532 0.0000e+00
     -0.562      0.006     7.9513     94.171      6.665   6.522417    -0.2311      6.829   -63.0161 8.3724e+02     1.5297     -0.551     -0.800    23.7982   997.3539 0.0000e+00
     -0.562      0.021     7.9225     94.161     17.249  16.974027    -0.1660      7.298   550.9916 1.1355e+03    22.2457     -0.552     -0.801    23.8038   997.3524 0.0000e+00
     -0.562      0.051     7.8488     94.136     29.689  29.501773     0.4934      7.894   617.8823 1.3357e+03   250.0584     -0.551     -0.799    23.7976   997.3541 0.0000e+00
     -0.560      0.092     7.7534     94.106     38.129  38.306307     1.7067      8.404   454.7689 1.3547e+03   667.5821     -0.552     -0.801    23.8120   997.3503 0.0000e+00
     -0.545      0.140     7.6701     94.079     40.405  40.998973     2.3663      8.791   432.3452 1.3423e+03   893.5702     -0.549     -0.796    23.7947   997.3550 0.0000e+00
     -0.497      0.187     7.6026     94.059     39.592  40.544658     2.4079      9.056   424.2805 1.3309e+03   894.0179     -0.497     -0.720    23.8729   997.3395 0.0000e+00
     -0.424      0.227     7.5518     94.107     38.868  40.114707     2.3047      9.218   420.0685 1.3296e+03   673.0929     -0.415     -0.602    24.4505   997.2004 0.0000e+00
     -0.348      0.253     7.5280     94.286     38.415  39.863928     2.1167      9.311   416.1784 1.2631e+03   264.7514     -0.341     -0.496    25.2184   997.0086 0.0000e+00
     -0.273      0.262     7.5296     94.579     38.232  39.798207     2.0160      9.362   412.6932 1.0016e+03    41.8871     -0.267     -0.386    25.7587   996.8679 0.0000e+00
     -0.201      0.251     7.5491     94.975     38.257  39.891599     2.0147      9.386   409.8501 8.5820e+02    21.5466     -0.193     -0.280    26.2162   996.7461 0.0000e+00
     -0.138      0.228     7.5815     95.478     38.237  39.914030     2.0222      9.396   408.1299 1.1200e+03    19.3739     -0.131     -0.191    26.6513   996.6291 0.0000e+00
     -0.083      0.202     7.6215     96.036     38.119  39.815559     2.0811      9.397   407.9836 1.3492e+03    15.8135     -0.080     -0.115    26.9284   996.5535 0.0000e+00
     -0.036      0.175     7.6649     96.577     38.026  39.716739     2.1979      9.392   407.4787 1.3192e+03     9.5660     -0.031     -0.044    27.0624   996.5168 0.0000e+00
      0.003      0.147     7.7089     97.066     38.011  39.671429     2.2550      9.385   406.4134 1.0713e+03     6.1689      0.006      0.008    27.1416   996.4952 0.0000e+00
      0.036      0.119     7.7494     97.482     38.029  39.648566     2.2601      9.378   405.3419 7.2470e+02     5.8732      0.034      0.049    27.1915   996.4815 0.0000e+00
      0.067      0.093     7.7783     97.790     37.974  39.567196     2.3816      9.370   404.4181 6.6758e+02     5.7936      0.070      0.101    27.2325   996.4703 0.0000e+00
      0.089      0.068     7.7938     97.995     37.856  39.449328     2.6054      9.361   403.9345 8.4626e+02     5.6981      0.093      0.135    27.2308   996.4708 0.0000e+00
      0.099      0.047     7.8130     98.288     37.755  39.366100     2.7292      9.353   403.4522 8.5358e+02     5.6683      0.100      0.144    27.1844   996.4836 0.0000e+00
      0.104      0.029     7.8687     99.057     37.686  39.322700     2.7425      9.347   402.8024 7.4688e+02     5.6631      0.103      0.150    27.1146   996.5030 0.0000e+00
      0.107      0.015     7.9475    100.119     37.642  39.305505     2.7401      9.338   402.3586 7.5901e+02     5.7012      0.105      0.152    27.0741   996.5141 0.0000e+00
      0.107      0.006     7.9943    100.769     37.597  39.285191     2.7349      9.328   402.0435 8.6110e+02     5.8017      0.105      0.152    27.0900   996.5097 0.0000e+00
      0.107      0.002     8.0046    100.944     37.562  39.267574     2.7321      9.320   401.6602 8.3925e+02     5.8618      0.105      0.152    27.1253   996.5000 0.0000e+00
      0.107      0.000     7.9993    100.909     37.564  39.282973     2.7316      9.314   401.4242 6.4500e+02     5.8706      0.105      0.152    27.1651   996.4889 0.0000e+00
      0.107 4.2120e-08     7.9723    100.586     37.554  39.280953     2.6776      9.309   401.3410 6.3622e+02     5.8748      0.104      0.151    27.2060   996.4775 0.0000e+00
      0.107 4.6332e-07     7.9128     99.848     37.514  39.243155     2.5636      9.303   400.9989 7.9388e+02     5.8800      0.105      0.152    27.2410   996.4679 0.0000e+00
      0.107 4.6301e-07     7.8225     98.716     37.476  39.206853     2.4984      9.298   400.3852 8.6742e+02     5.8687      0.106      0.153    27.2672   996.4606 0.0000e+00
      0.107 3.8306e-08     7.7051     97.238     37.430  39.159441     2.4962      9.293   400.1149 9.3121e+02     5.8692      0.105      0.152    27.2833   996.4562 0.0000e+00
      0.107 1.4018e-10     7.5745     95.589     37.387  39.114259     2.5026      9.288   400.0534 1.0018e+03     5.8857      0.105      0.153    27.2923   996.4536 0.0000e+00
      0.107 1.5420e-09     7.4573     94.112     37.377  39.104910     2.5063      9.283   399.5558 9.5742e+02     5.8714      0.105      0.153    27.2987   996.4518 0.0000e+00
      0.107 1.6962e-08     7.3632     92.933     37.378  39.109892     2.4976      9.278   398.6579 8.2200e+02     5.8273      0.106      0.153    27.3030   996.4507 0.0000e+00
      0.107 1.8658e-07     7.2894     92.016     37.373  39.111026     2.5009      9.273   397.7155 7.6071e+02     5.8116      0.105      0.153    27.3050   996.4500 0.0000e+00
      0.107 1.8963e-07     7.2361     91.353     37.376  39.118631     2.6156      9.268   397.6257 7.5460e+02     5.8456      0.106      0.153    27.3034   996.4505 0.0000e+00
      0.107 5.3881e-08     7.1988     90.886     37.393  39.138371     2.8094      9.264   398.2597 6.9631e+02     5.8775      0.105      0.153    27.3029   996.4507 0.0000e+00
      0.107 4.0796e-07     7.1707     90.524     37.417  39.159252     2.9110      9.259   398.3268 7.0378e+02     5.8699      0.105      0.152    27.3096   996.4488 0.0000e+00
      0.107      0.000     7.1487     90.234     37.442  39.180662     2.9255      9.254   397.9209 8.6049e+02     5.8512      0.105      0.153    27.3190   996.4462 0.0000e+00
      0.108      0.000     7.1328     90.024     37.472  39.206783     2.9325      9.250   397.1375 9.8860e+02     5.8480      0.105      0.153    27.3268   996.4440 0.0000e+00
      0.108      0.001     7.1290     89.972     37.487  39.221153     2.9868      9.248   395.9109 8.9654e+02     5.7662      0.107      0.154    27.3297   996.4432 0.0000e+00
      0.108      0.001     7.1551     90.303     37.492  39.227455     3.0966      9.246   395.5654 6.3374e+02     5.6160      0.106      0.155    27.3238   996.4449 0.0000e+00
      0.108      0.000     7.2271     91.214     37.483  39.219491     3.1586      9.243   396.3158 4.7878e+02     5.5400      0.105      0.153    27.3141   996.4476 0.0000e+00
      0.108 1.8474e-08     7.3439     92.694     37.451  39.188344     3.1559      9.241   396.8092 5.2112e+02     5.5351      0.106      0.154    27.3078   996.4493 0.0000e+00
      0.108 2.0321e-07     7.4917     94.564     37.430  39.168260     3.1677      9.239   396.6264 5.8542e+02     5.6223      0.106      0.154    27.3059   996.4499 0.0000e+00
      0.108 2.0321e-07     7.6489     96.553     37.428  39.167105     3.2058      9.236   396.1712 6.3417e+02     5.7755      0.106      0.154    27.3070   996.4495 0.0000e+00
      0.108 1.8474e-08     7.7949     98.398     37.433  39.174389     3.2264      9.233   395.6075 7.3536e+02     5.8465      0.106      0.154    27.3092   996.4490 0.0000e+00
      0.108 1.6794e-09     7.9139     99.902     37.450  39.192850     3.2263      9.230   395.1455 9.3823e+02     5.8254      0.105      0.153    27.3121   996.4481 0.0000e+00
      0.108 1.5267e-10     7.9952    100.929     37.457  39.199873     3.1961      9.227   394.9725 1.0505e+03     5.8154      0.107      0.155    27.3155   996.4471 0.0000e+00
      0.108 1.3880e-11     8.0360    101.445     37.453  39.195823     3.1382      9.225   394.8066 9.5201e+02     5.8574      0.106      0.154    27.3181   996.4464 0.0000e+00
      0.108 1.2618e-12     8.0407    101.505     37.463  39.207364     3.1163      9.223   394.3441 8.5481e+02     5.8742      0.106      0.154    27.3200   996.4460 0.0000e+00
      0.108 1.1471e-13     8.0227    101.277     37.468  39.212463     3.1305      9.222   392.6496 7.8436e+02     5.8544      0.106      0.154    27.3209   996.4457 0.0000e+00
      0.108 1.0428e-14     7.9972    100.956     37.450  39.193992     3.1276      9.219   390.2363 8.0546e+02     5.7817      0.106      0.154    27.3210   996.4456 0.0000e+00
      0.108 9.4800e-16     7.9739    100.665     37.430  39.174464     3.1079      9.217   389.2562 8.9291e+02     5.6499      0.107      0.155    27.3212   996.4456 0.0000e+00
      0.108 8.6180e-17     7.9591    100.481     37.422  39.166798     3.1001      9.215   389.6612 8.6634e+02     5.5722      0.106      0.154    27.3215   996.4455 0.0000e+00
