* Sea-Bird SBE19plus  Data File:
* FileName = C:\R\Reservoirs\Data\DataNotYetUploadedToEDI\Raw_CTD\RawDownloads\081924_fcr50_S7809_0003.hex
* Software version 2.8.0.119
* Temperature SN = 7809
* Conductivity SN = 7809
* System UpLoad Time = Aug 20 2024 14:05:29
* <ApplicationData>
* <Seaterm232>
* <SoftwareVersion>2.8.0.119</SoftwareVersion>
* <BuildDate>07-Nov-2018</BuildDate>
* </Seaterm232>
* </ApplicationData>
* <InstrumentState>
* <HardwareData DeviceType='SBE19plus' SerialNumber='01907809'>
*
*    <Manufacturer>Sea-Bird Electronics, Inc.</Manufacturer>
*
*    <FirmwareVersion>3.1.8</FirmwareVersion>
*
*    <FirmwareDate>Mar  9 2016 16:22:29</FirmwareDate>
*
*    <CommandSetVersion>1.4</CommandSetVersion>
*
*    <PCBAssembly PCBSerialNum='120721' AssemblyNum='41054J'/>
*
*    <PCBAssembly PCBSerialNum='120715' AssemblyNum='41967A'/>
*
*    <PCBAssembly PCBSerialNum='116699' AssemblyNum='41606'/>
*
*    <PCBAssembly PCBSerialNum='120719' AssemblyNum='41059D'/>
*
*    <MfgDate>28-Apr-2017</MfgDate>
*
*    <InternalSensors>
*
*       <Sensor id='Main Temperature'>
*
*          <type>temperature0</type>
*
*          <SerialNumber>01907809</SerialNumber>
*
*       </Sensor>
*
*       <Sensor id='Main Conductivity'>
*
*          <type>conductivity-0</type>
*
*          <SerialNumber>01907809</SerialNumber>
*
*       </Sensor>
*
*       <Sensor id='Main Pressure'>
*
*          <type>strain-0</type>
*
*          <SerialNumber>10586018</SerialNumber>
*
*       </Sensor>
*
*    </InternalSensors>
*
*    <ExternalSensors>
*
*       <Sensor id='volt 0'>
*
*          <type>pH</type>
*
*          <SerialNumber>27-0363</SerialNumber>
*
*       </Sensor>
*
*       <Sensor id='volt 1'>
*
*          <type>ORP</type>
*
*          <SerialNumber>27-0363</SerialNumber>
*
*       </Sensor>
*
*       <Sensor id='volt 2'>
*
*          <type>OXY</type>
*
*          <SerialNumber>43-0434</SerialNumber>
*
*       </Sensor>
*
*       <Sensor id='volt 3'>
*
*          <type>PAR</type>
*
*          <SerialNumber>1122</SerialNumber>
*
*       </Sensor>
*
*       <Sensor id='volt 4'>
*
*          <type>ECO AFL/FL</type>
*
*          <SerialNumber>FLNTURT-2496</SerialNumber>
*
*       </Sensor>
*
*       <Sensor id='volt 5'>
*
*          <type>ECO-NTU</type>
*
*          <SerialNumber>FLNTURT-2496</SerialNumber>
*
*       </Sensor>
*
*       <Sensor id='serial'>
*
*          <type>not assigned</type>
*
*          <SerialNumber>not assigned</SerialNumber>
*
*       </Sensor>
*
*    </ExternalSensors>
*
* </HardwareData>
* <StatusData DeviceType='SBE19plus' SerialNumber='01907809'>
*
*    <DateTime>2024-08-20T14:03:12</DateTime>
*
*    <LoggingState>not logging</LoggingState>
*
*    <EventSummary numEvents='0'/>
*
*    <Power>
*
*       <vMain>12.4</vMain>
*
*       <vLith>8.3</vLith>
*
*       <iMain>63.1</iMain>
*
*       <iPump>55.3</iPump>
*
*       <iExt01>20.9</iExt01>
*
*       <iExt2345>39.8</iExt2345>
*
*    </Power>
*
*    <MemorySummary>
*
*       <Bytes>194235</Bytes>
*
*       <Samples>8445</Samples>
*
*       <SamplesFree>2852343</SamplesFree>
*
*       <SampleLength>23</SampleLength>
*
*       <Profiles>7</Profiles>
*
*    </MemorySummary>
*
* </StatusData>
* <ConfigurationData DeviceType='SBE19plus' SerialNumber='01907809'>
*
*    <ProfileMode>
*
*       <ScansToAverage>1</ScansToAverage>
*
*       <MinimumCondFreq>0</MinimumCondFreq>
*
*       <PumpDelay>45</PumpDelay>
*
*       <AutoRun>no</AutoRun>
*
*       <IgnoreSwitch>no</IgnoreSwitch>
*
*    </ProfileMode>
*
*    <Battery>
*
*       <Type>alkaline</Type>
*
*       <CutOff>7.5</CutOff>
*
*    </Battery>
*
*    <DataChannels>
*
*       <ExtVolt0>yes</ExtVolt0>
*
*       <ExtVolt1>yes</ExtVolt1>
*
*       <ExtVolt2>yes</ExtVolt2>
*
*       <ExtVolt3>yes</ExtVolt3>
*
*       <ExtVolt4>yes</ExtVolt4>
*
*       <ExtVolt5>yes</ExtVolt5>
*
*       <SBE38>no</SBE38>
*
*       <WETLABS>no</WETLABS>
*
*       <OPTODE>no</OPTODE>
*
*       <SBE63>no</SBE63>
*
*       <SeaFET>no</SeaFET>
*
*       <GTD>no</GTD>
*
*    </DataChannels>
*
*    <EchoCharacters>yes</EchoCharacters>
*
*    <OutputExecutedTag>yes</OutputExecutedTag>
*
*    <OutputFormat>raw HEX</OutputFormat>
*
* </ConfigurationData>
* <CalibrationCoefficients DeviceType='SBE19plus' SerialNumber='01907809'>
*
*    <Calibration format='TEMP1' id='Main Temperature'>
*
*       <SerialNum>01907809</SerialNum>
*
*       <CalDate>31-Jan-23</CalDate>
*
*       <TA0>1.218232e-03</TA0>
*
*       <TA1>2.815090e-04</TA1>
*
*       <TA2>-1.578887e-06</TA2>
*
*       <TA3>1.972343e-07</TA3>
*
*       <TOFFSET>0.000000e+00</TOFFSET>
*
*    </Calibration>
*
*    <Calibration format='WBCOND0' id='Main Conductivity'>
*
*       <SerialNum>01907809</SerialNum>
*
*       <CalDate>31-Jan-23</CalDate>
*
*       <G>-1.005652e+00</G>
*
*       <H>1.267963e-01</H>
*
*       <I>-1.561708e-04</I>
*
*       <J>2.645944e-05</J>
*
*       <CPCOR>-9.570000e-08</CPCOR>
*
*       <CTCOR>3.250000e-06</CTCOR>
*
*       <CSLOPE>1.000000e+00</CSLOPE>
*
*    </Calibration>
*
*    <Calibration format='STRAIN0' id='Main Pressure'>
*
*       <SerialNum>10586018</SerialNum>
*
*       <CalDate>20-Jan-23</CalDate>
*
*       <PA0>4.416439e-02</PA0>
*
*       <PA1>4.850502e-04</PA1>
*
*       <PA2>-3.090426e-12</PA2>
*
*       <PTCA0>5.254757e+05</PTCA0>
*
*       <PTCA1>1.050255e+01</PTCA1>
*
*       <PTCA2>-2.922435e-01</PTCA2>
*
*       <PTCB0>2.516687e+01</PTCB0>
*
*       <PTCB1>3.750000e-04</PTCB1>
*
*       <PTCB2>0.000000e+00</PTCB2>
*
*       <PTEMPA0>-5.470820e+01</PTEMPA0>
*
*       <PTEMPA1>5.485421e+01</PTEMPA1>
*
*       <PTEMPA2>-3.446578e-01</PTEMPA2>
*
*       <POFFSET>8.500000e-01</POFFSET>
*
*       <PRANGE>1.600000e+02</PRANGE>
*
*    </Calibration>
*
*    <Calibration format='VOLT0' id='Volt 0'>
*
*       <OFFSET>-4.920000e-02</OFFSET>
*
*       <SLOPE>1.248122e+00</SLOPE>
*
*    </Calibration>
*
*    <Calibration format='VOLT0' id='Volt 1'>
*
*       <OFFSET>-4.784000e-02</OFFSET>
*
*       <SLOPE>1.248871e+00</SLOPE>
*
*    </Calibration>
*
*    <Calibration format='VOLT0' id='Volt 2'>
*
*       <OFFSET>-4.864632e-02</OFFSET>
*
*       <SLOPE>1.248714e+00</SLOPE>
*
*    </Calibration>
*
*    <Calibration format='VOLT0' id='Volt 3'>
*
*       <OFFSET>-4.743790e-02</OFFSET>
*
*       <SLOPE>1.248571e+00</SLOPE>
*
*    </Calibration>
*
*    <Calibration format='VOLT0' id='Volt 4'>
*
*       <OFFSET>-4.671263e-02</OFFSET>
*
*       <SLOPE>1.248951e+00</SLOPE>
*
*    </Calibration>
*
*    <Calibration format='VOLT0' id='Volt 5'>
*
*       <OFFSET>-4.871053e-02</OFFSET>
*
*       <SLOPE>1.249136e+00</SLOPE>
*
*    </Calibration>
*
*    <Calibration format='FREQ0' id='external frequency channel'>
*
*       <EXTFREQSF>1.000014e+00</EXTFREQSF>
*
*    </Calibration>
*
* </CalibrationCoefficients>
* <EventCounters DeviceType='SBE19plus' SerialNumber='01907809'>
*
*    <EventSummary numEvents='0'/>
*
* </EventCounters></InstrumentState>
* <Headers>
*
* cast   3 19 Aug 2024 12:10:56 samples 3310 to 4111, avg = 1, stop = mag switch
*
# nquan = 15
# nvalues = 663                         
# units = specified
# name 0 = depFM: Depth [fresh water, m]
# name 1 = dz/dtM: Descent Rate [m/s]
# name 2 = sbeox0Mg/L: Oxygen, SBE 43 [mg/l]
# name 3 = sbeox0PS: Oxygen, SBE 43 [% saturation]
# name 4 = specc: Specific Conductance [uS/cm]
# name 5 = c0uS/cm: Conductivity [uS/cm]
# name 6 = flECO-AFL: Fluorescence, WET Labs ECO-AFL/FL [mg/m^3]
# name 7 = ph: pH
# name 8 = orp: Oxidation Reduction Potential [mV]
# name 9 = par/sat/log: PAR/Logarithmic, Satlantic
# name 10 = turbWETntu0: Turbidity, WET Labs ECO [NTU]
# name 11 = prdM: Pressure, Strain Gauge [db]
# name 12 = prdE: Pressure, Strain Gauge [psi]
# name 13 = tv290C: Temperature [ITS-90, deg C]
# name 14 = flag:  0.000e+00
# span 0 =     -0.708,      2.224       
# span 1 =     -0.044,      0.160       
# span 2 =     0.0076,     8.2807       
# span 3 =      0.298,     99.666       
# span 4 =      3.419,     48.839       
# span 5 =   3.283637,  47.256102       
# span 6 =    -0.0782,    96.9390       
# span 7 =      1.353,      7.314       
# span 8 = -1240.7455,   192.7527       
# span 9 = 5.2841e+01, 1.9408e+03       
# span 10 =    -1.8970,   107.3857      
# span 11 =     -0.695,      2.182      
# span 12 =     -1.008,      3.165      
# span 13 =    22.9988,    25.1083      
# span 14 = 0.0000e+00, 0.0000e+00      
# interval = seconds: 0.25
# start_time = Aug 19 2024 12:10:56 [Instrument's time stamp, header]
# bad_flag = -9.990e-29
# <Sensors count="9" >
#   <sensor Channel="1" >
#     <!-- Count, Temperature -->
#     <TemperatureSensor SensorID="58" >
#       <SerialNumber>7809</SerialNumber>
#       <CalibrationDate>31-Jan-23</CalibrationDate>
#       <A0>1.21823180e-003</A0>
#       <A1>2.81508993e-004</A1>
#       <A2>-1.57888696e-006</A2>
#       <A3>1.97234302e-007</A3>
#       <Slope>1.00000000</Slope>
#       <Offset>0.0000</Offset>
#     </TemperatureSensor>
#   </sensor>
#   <sensor Channel="2" >
#     <!-- Frequency 0, Conductivity -->
#     <ConductivitySensor SensorID="3" >
#       <SerialNumber>7809</SerialNumber>
#       <CalibrationDate>31-Jan-23</CalibrationDate>
#       <UseG_J>1</UseG_J>
#       <!-- Cell const and series R are applicable only for wide range sensors. -->
#       <SeriesR>0.0000</SeriesR>
#       <CellConst>2000.0000</CellConst>
#       <ConductivityType>0</ConductivityType>
#       <Coefficients equation="0" >
#         <A>0.00000000e+000</A>
#         <B>0.00000000e+000</B>
#         <C>0.00000000e+000</C>
#         <D>0.00000000e+000</D>
#         <M>0.0</M>
#         <CPcor>-9.57000000e-008</CPcor>
#       </Coefficients>
#       <Coefficients equation="1" >
#         <G>-1.00565232e+000</G>
#         <H>1.26796307e-001</H>
#         <I>-1.56170788e-004</I>
#         <J>2.64594368e-005</J>
#         <CPcor>-9.57000000e-008</CPcor>
#         <CTcor>3.2500e-006</CTcor>
#         <!-- WBOTC not applicable unless ConductivityType = 1. -->
#         <WBOTC>0.00000000e+000</WBOTC>
#       </Coefficients>
#       <Slope>1.00000000</Slope>
#       <Offset>0.00000</Offset>
#     </ConductivitySensor>
#   </sensor>
#   <sensor Channel="3" >
#     <!-- Count, Pressure, Strain Gauge -->
#     <PressureSensor SensorID="46" >
#       <SerialNumber>7809</SerialNumber>
#       <CalibrationDate>20-Jan-23</CalibrationDate>
#       <PA0>4.41643944e-002</PA0>
#       <PA1>4.85050239e-004</PA1>
#       <PA2>-3.09042623e-012</PA2>
#       <PTEMPA0>-5.47081996e+001</PTEMPA0>
#       <PTEMPA1>5.48542136e+001</PTEMPA1>
#       <PTEMPA2>-3.44657813e-001</PTEMPA2>
#       <PTCA0>5.25475731e+005</PTCA0>
#       <PTCA1>1.05025484e+001</PTCA1>
#       <PTCA2>-2.92243463e-001</PTCA2>
#       <PTCB0>2.51668750e+001</PTCB0>
#       <PTCB1>3.75000000e-004</PTCB1>
#       <PTCB2>0.00000000e+000</PTCB2>
#       <Offset>0.000000</Offset>
#     </PressureSensor>
#   </sensor>
#   <sensor Channel="4" >
#     <!-- A/D voltage 0, Oxygen, SBE 43 -->
#     <OxygenSensor SensorID="38" >
#       <SerialNumber>0434</SerialNumber>
#       <CalibrationDate>18-Feb-23</CalibrationDate>
#       <Use2007Equation>1</Use2007Equation>
#       <CalibrationCoefficients equation="0" >
#         <!-- Coefficients for Owens-Millard equation. -->
#         <Boc>0.0000</Boc>
#         <Soc>0.0000e+000</Soc>
#         <offset>0.0000</offset>
#         <Pcor>0.00e+000</Pcor>
#         <Tcor>0.0000</Tcor>
#         <Tau>0.0</Tau>
#       </CalibrationCoefficients>
#       <CalibrationCoefficients equation="1" >
#         <!-- Coefficients for Sea-Bird equation - SBE calibration in 2007 and later. -->
#         <Soc>5.1878e-001</Soc>
#         <offset>-0.5046</offset>
#         <A>-4.2788e-003</A>
#         <B> 1.5372e-004</B>
#         <C>-2.1853e-006</C>
#         <D0> 2.5826e+000</D0>
#         <D1> 1.92634e-004</D1>
#         <D2>-4.64803e-002</D2>
#         <E> 3.6000e-002</E>
#         <Tau20> 0.9900</Tau20>
#         <H1>-3.3000e-002</H1>
#         <H2> 5.0000e+003</H2>
#         <H3> 1.4500e+003</H3>
#       </CalibrationCoefficients>
#     </OxygenSensor>
#   </sensor>
#   <sensor Channel="5" >
#     <!-- A/D voltage 1, PAR/Logarithmic, Satlantic -->
#     <PARLog_SatlanticSensor SensorID="76" >
#       <SerialNumber>1122</SerialNumber>
#       <CalibrationDate>08-Sep-2021</CalibrationDate>
#       <a0>9.6751e-001</a0>
#       <a1>8.0992e-001</a1>
#       <Im>1.3589e+000</Im>
#       <Multiplier>1.0000e+000</Multiplier>
#     </PARLog_SatlanticSensor>
#   </sensor>
#   <sensor Channel="6" >
#     <!-- A/D voltage 2, pH -->
#     <pH_Sensor SensorID="43" >
#       <SerialNumber>0363</SerialNumber>
#       <CalibrationDate>28-Feb-23</CalibrationDate>
#       <Slope>4.7364</Slope>
#       <Offset>2.5433</Offset>
#     </pH_Sensor>
#   </sensor>
#   <sensor Channel="7" >
#     <!-- A/D voltage 3, Oxidation Reduction Potential -->
#     <OxidationReductionPotentialSensor SensorID="41" >
#       <SerialNumber>0363</SerialNumber>
#       <CalibrationDate>28-Feb-23</CalibrationDate>
#       <B>2.499480</B>
#       <M>-0.496195</M>
#       <Offset>0.0</Offset>
#     </OxidationReductionPotentialSensor>
#   </sensor>
#   <sensor Channel="8" >
#     <!-- A/D voltage 4, Fluorometer, WET Labs ECO-AFL/FL -->
#     <FluoroWetlabECO_AFL_FL_Sensor SensorID="20" >
#       <SerialNumber>FLNTURT-2496</SerialNumber>
#       <CalibrationDate>02-Sep-2021</CalibrationDate>
#       <ScaleFactor>4.80000000e+001</ScaleFactor>
#       <!-- Dark output -->
#       <Vblank>0.0550</Vblank>
#     </FluoroWetlabECO_AFL_FL_Sensor>
#   </sensor>
#   <sensor Channel="9" >
#     <!-- A/D voltage 5, Turbidity Meter, WET Labs, ECO-NTU -->
#     <TurbidityMeter SensorID="67" >
#       <SerialNumber>FLNTURT--2496</SerialNumber>
#       <CalibrationDate>02-Sep-2021</CalibrationDate>
#       <ScaleFactor>197.000000</ScaleFactor>
#       <!-- Dark output -->
#       <DarkVoltage>0.070000</DarkVoltage>
#     </TurbidityMeter>
#   </sensor>
# </Sensors>
# datcnv_date = Aug 20 2024 14:15:19, 7.26.7.129 [datcnv_vars = 14]
# datcnv_in = C:\R\Reservoirs\Data\DataNotYetUploadedToEDI\Raw_CTD\RawDownloads\081924_fcr10_S7809003.hex C:\R\Reservoirs\Data\DataNotYetUploadedToEDI\Raw_CTD\RawDownloads\SBE19plusV2_7809_start20230701.xmlcon
# datcnv_skipover = 0
# datcnv_ox_hysteresis_correction = yes
# datcnv_ox_tau_correction = yes
# filter_date = Aug 20 2024 14:16:22, 7.26.7.129
# filter_in = C:\R\Reservoirs\Data\DataNotYetUploadedToEDI\Raw_CTD\RawDownloads\081924_fcr10_S7809003.cnv
# filter_low_pass_tc_A = 0.030
# filter_low_pass_tc_B = 0.150
# filter_low_pass_A_vars = sbeox0Mg/L prdM prdE tv290C
# filter_low_pass_B_vars = depFM dz/dtM sbeox0PS specc c0uS/cm flECO-AFL ph orp par/sat/log turbWETntu0
# alignctd_date = Aug 20 2024 14:17:23, 7.26.7.129
# alignctd_in = C:\R\Reservoirs\Data\DataNotYetUploadedToEDI\Raw_CTD\RawDownloads\081924_fcr10_S7809003.cnv
# alignctd_adv = dz/dtM 1.000, sbeox0PS 1.000, specc 1.000, c0uS/cm 1.000, flECO-AFL 1.000, ph 1.000, orp 1.000, turbWETntu0 1.000                                                                                                   
# file_type = ascii
*END*
     -0.708 7.9085e-17     7.3935     86.224      3.576   3.433547    -0.0593      3.920 -1240.7455 4.2230e+02     1.7029     -0.694     -1.007    22.9988 0.0000e+00
     -0.708 8.6899e-16     7.3949     86.233      3.561   3.419712    -0.0760      3.344 -1240.7455 5.6370e+02     1.7024     -0.695     -1.008    23.0000 0.0000e+00
     -0.708 9.5589e-15     7.3962     86.229      3.535   3.394227    -0.0713      2.953 -1240.7455 7.3725e+02     1.7025     -0.695     -1.008    23.0017 0.0000e+00
     -0.708 1.0515e-13     7.3955     86.213      3.518   3.378796    -0.0609      2.853 -1240.7455 1.1064e+03     1.1929     -0.695     -1.008    23.0028 0.0000e+00
     -0.708 1.1566e-12     7.3943     86.200      3.498   3.359834    -0.0585      2.923 -1240.7455 1.4241e+03     0.2883     -0.694     -1.007    23.0038 0.0000e+00
     -0.708 1.2723e-11     7.3968     86.182      3.493   3.354993    -0.0591      3.051 -1240.7454 9.4873e+02    -0.1490     -0.694     -1.007    23.0046 0.0000e+00
     -0.708 1.3995e-10     7.3960     86.165      3.523   3.383610    -0.0520      3.183 -1240.7449 4.0330e+02    -0.1319     -0.694     -1.007    23.0053 0.0000e+00
     -0.708 1.5395e-09     7.3933     86.160      3.528   3.389107    -0.0472      3.303 -1240.7385 2.9441e+02    -0.1195     -0.694     -1.007    23.0068 0.0000e+00
     -0.708 1.6934e-08     7.3929     86.151      3.496   3.358108    -0.0509      3.250 -1240.6683 2.3681e+02    -0.0337     -0.694     -1.007    23.0094 0.0000e+00
     -0.708 1.8627e-07     7.3905     86.131      3.463   3.325542    -0.0551      2.734 -1239.8959 1.9826e+02     0.0855     -0.694     -1.007    23.0122 0.0000e+00
     -0.707 1.8627e-07     7.3878     86.124      3.449   3.312088    -0.0570      1.540 -1231.3994 1.8958e+02     0.0928     -0.693     -1.006    23.0142 0.0000e+00
     -0.707 1.6934e-08     7.3887     86.150      3.459   3.322141    -0.0570      1.353 -1137.9379 2.1463e+02     0.0208     -0.694     -1.006    23.0148 0.0000e+00
     -0.707 1.5395e-09     7.3877     86.194      3.457   3.320398    -0.0623      3.722 -1023.3401 2.5157e+02    -0.1025     -0.694     -1.006    23.0155 0.0000e+00
     -0.708 1.3995e-10     7.3853     86.223      3.426   3.291018    -0.0548      6.232 -1077.4588 2.7129e+02    -0.1689     -0.694     -1.007    23.0168 0.0000e+00
     -0.708 1.2723e-11     7.3832     86.248      3.419   3.283637    -0.0336      6.986 -1196.9765 2.7385e+02    -0.1664     -0.693     -1.007    23.0188 0.0000e+00
     -0.708 1.1567e-12     7.3856     86.271      3.430   3.294500    -0.0395      6.805 -1236.7665 2.6812e+02    -0.2094     -0.694     -1.006    23.0214 0.0000e+00
     -0.708 1.0544e-13     7.3912     86.292      3.431   3.295667    -0.0589      6.440 -1240.3837 2.5968e+02    -0.2113     -0.695     -1.008    23.0239 0.0000e+00
     -0.708 1.2731e-14     7.3916     86.309      3.433   3.297756    -0.0597      6.152 -1240.7126 2.6373e+02    -0.1203     -0.694     -1.007    23.0260 0.0000e+00
     -0.708 3.5760e-14     7.3942     86.312      3.456   3.319754    -0.0580      5.974 -1240.7425 3.7224e+02    -0.0997     -0.694     -1.007    23.0267 0.0000e+00
     -0.708 3.8388e-13     7.3963     86.316      3.510   3.371603    -0.0712      5.878 -1240.7453 6.0568e+02    -0.2009     -0.694     -1.007    23.0268 0.0000e+00
     -0.708 4.2219e-12     7.3977     86.326      3.558   3.417883    -0.0782      5.838 -1240.7455 7.8182e+02    -0.2510     -0.694     -1.006    23.0268 0.0000e+00
     -0.708 4.6441e-11     7.4004     86.335      3.576   3.435883    -0.0595      5.825 -1240.7455 8.2164e+02    -0.1926     -0.694     -1.007    23.0269 0.0000e+00
     -0.708 5.1085e-10     7.3992     86.365      3.604   3.462545    -0.0441      5.820 -1240.7455 8.0839e+02    -0.1106     -0.695     -1.008    23.0270 0.0000e+00
     -0.708 5.6193e-09     7.3993     86.429      3.629   3.486862    -0.0514      5.818 -1240.7455 7.9913e+02    -0.0795     -0.695     -1.008    23.0275 0.0000e+00
     -0.708 6.1812e-08     7.4011     86.508      3.619   3.476513    -0.0728      5.820 -1240.7455 8.0993e+02    -0.1236     -0.695     -1.008    23.0293 0.0000e+00
