* Sea-Bird SBE19plus  Data File:
* FileName = C:\DATA\082819_fcr_0004.hex
* Software version 2.8.0.119 SB_Terminal.dll
* Temperature SN = 7809
* Conductivity SN = 7809
* System UpLoad Time = Aug 28 2019 11:50:16
* <ApplicationData>
* <Seaterm232>
* <SoftwareVersion>2.8.0.119</SoftwareVersion>
* <BuildDate>07-Nov-2018</BuildDate>
* </Seaterm232>
* </ApplicationData>
* cast   4 28 Aug 2019 11:08:00 samples 1489 to 2159, avg = 1, stop = mag switch
# nquan = 15
# nvalues = 578                         
# units = specified
# name 0 = depFM: Depth [fresh water, m]
# name 1 = dz/dtM: Descent Rate [m/s]
# name 2 = sbeox0ML/L: Oxygen, SBE 43 [ml/l]
# name 3 = sbeox0PS: Oxygen, SBE 43 [% saturation]
# name 4 = specc: Specific Conductance [uS/cm]
# name 5 = c0uS/cm: Conductivity [uS/cm]
# name 6 = flECO-AFL: Fluorescence, WET Labs ECO-AFL/FL [mg/m^3]
# name 7 = ph: pH
# name 8 = orp: Oxidation Reduction Potential [mV]
# name 9 = par/sat/log: PAR/Logarithmic, Satlantic
# name 10 = turbWETntu0: Turbidity, WET Labs ECO [NTU]
# name 11 = prdM: Pressure, Strain Gauge [db]
# name 12 = prdE: Pressure, Strain Gauge [psi]
# name 13 = tv290C: Temperature [ITS-90, deg C]
# name 14 = flag:  0.000e+00
# span 0 =     -0.261,      6.539       
# span 1 =     -0.006,      0.137       
# span 2 =    -0.0861,     6.0506       
# span 3 =     -1.245,    101.189       
# span 4 =     35.705,     75.703       
# span 5 =  34.484509,  59.849671       
# span 6 =     0.9661,     9.8871       
# span 7 =      6.549,      7.725       
# span 8 =   169.8244,   237.7503       
# span 9 = 1.2355e-01, 6.7810e+02       
# span 10 =     1.2952,    10.1403      
# span 11 =     -0.261,      6.413      
# span 12 =     -0.378,      9.301      
# span 13 =    11.8621,    23.5575      
# span 14 = 0.0000e+00, 0.0000e+00      
# interval = seconds: 0.25
# start_time = Aug 28 2019 11:08:00 [Instrument's time stamp, header]
# bad_flag = -9.990e-29
# <Sensors count="9" >
#   <sensor Channel="1" >
#     <!-- Count, Temperature -->
#     <TemperatureSensor SensorID="58" >
#       <SerialNumber>7809</SerialNumber>
#       <CalibrationDate>24-Mar-19</CalibrationDate>
#       <A0>1.21792325e-003</A0>
#       <A1>2.81669265e-004</A1>
#       <A2>-1.60333336e-006</A2>
#       <A3>1.98414625e-007</A3>
#       <Slope>1.00000000</Slope>
#       <Offset>0.0000</Offset>
#     </TemperatureSensor>
#   </sensor>
#   <sensor Channel="2" >
#     <!-- Frequency 0, Conductivity -->
#     <ConductivitySensor SensorID="3" >
#       <SerialNumber>7809</SerialNumber>
#       <CalibrationDate>24-Mar-19</CalibrationDate>
#       <UseG_J>1</UseG_J>
#       <!-- Cell const and series R are applicable only for wide range sensors. -->
#       <SeriesR>0.0000</SeriesR>
#       <CellConst>2000.0000</CellConst>
#       <ConductivityType>0</ConductivityType>
#       <Coefficients equation="0" >
#         <A>0.00000000e+000</A>
#         <B>0.00000000e+000</B>
#         <C>0.00000000e+000</C>
#         <D>0.00000000e+000</D>
#         <M>0.0</M>
#         <CPcor>-9.57000000e-008</CPcor>
#       </Coefficients>
#       <Coefficients equation="1" >
#         <G>-1.00589325e+000</G>
#         <H>1.26816302e-001</H>
#         <I>-1.51560448e-004</I>
#         <J>2.67137274e-005</J>
#         <CPcor>-9.57000000e-008</CPcor>
#         <CTcor>3.2500e-006</CTcor>
#         <!-- WBOTC not applicable unless ConductivityType = 1. -->
#         <WBOTC>0.00000000e+000</WBOTC>
#       </Coefficients>
#       <Slope>1.00000000</Slope>
#       <Offset>0.00000</Offset>
#     </ConductivitySensor>
#   </sensor>
#   <sensor Channel="3" >
#     <!-- Count, Pressure, Strain Gauge -->
#     <PressureSensor SensorID="46" >
#       <SerialNumber>7809</SerialNumber>
#       <CalibrationDate>11-Mar-19</CalibrationDate>
#       <PA0>4.56561833e-002</PA0>
#       <PA1>4.85095118e-004</PA1>
#       <PA2>-2.88327090e-012</PA2>
#       <PTEMPA0>-5.48784562e+001</PTEMPA0>
#       <PTEMPA1>5.53756816e+001</PTEMPA1>
#       <PTEMPA2>-5.86727098e-001</PTEMPA2>
#       <PTCA0>5.25246745e+005</PTCA0>
#       <PTCA1>1.22304214e+001</PTCA1>
#       <PTCA2>-3.56745036e-001</PTCA2>
#       <PTCB0>2.51668750e+001</PTCB0>
#       <PTCB1>3.75000000e-004</PTCB1>
#       <PTCB2>0.00000000e+000</PTCB2>
#       <Offset>0.000000</Offset>
#     </PressureSensor>
#   </sensor>
#   <sensor Channel="4" >
#     <!-- A/D voltage 0, Oxygen, SBE 43 -->
#     <OxygenSensor SensorID="38" >
#       <SerialNumber>0434</SerialNumber>
#       <CalibrationDate>13-Apr-19</CalibrationDate>
#       <Use2007Equation>1</Use2007Equation>
#       <CalibrationCoefficients equation="0" >
#         <!-- Coefficients for Owens-Millard equation. -->
#         <Boc>0.0000</Boc>
#         <Soc>0.0000e+000</Soc>
#         <offset>0.0000</offset>
#         <Pcor>0.00e+000</Pcor>
#         <Tcor>0.0000</Tcor>
#         <Tau>0.0</Tau>
#       </CalibrationCoefficients>
#       <CalibrationCoefficients equation="1" >
#         <!-- Coefficients for Sea-Bird equation - SBE calibration in 2007 and later. -->
#         <Soc>4.2007e-001</Soc>
#         <offset>-0.6109</offset>
#         <A>-4.3656e-003</A>
#         <B> 1.7017e-004</B>
#         <C>-2.5341e-006</C>
#         <D0> 2.5826e+000</D0>
#         <D1> 1.92634e-004</D1>
#         <D2>-4.64803e-002</D2>
#         <E> 3.6000e-002</E>
#         <Tau20> 1.1800</Tau20>
#         <H1>-3.3000e-002</H1>
#         <H2> 5.0000e+003</H2>
#         <H3> 1.4500e+003</H3>
#       </CalibrationCoefficients>
#     </OxygenSensor>
#   </sensor>
#   <sensor Channel="5" >
#     <!-- A/D voltage 1, PAR/Logarithmic, Satlantic -->
#     <PARLog_SatlanticSensor SensorID="76" >
#       <SerialNumber>1122</SerialNumber>
#       <CalibrationDate>08-May-2019</CalibrationDate>
#       <a0>9.7456e-001</a0>
#       <a1>8.1640e-001</a1>
#       <Im>1.3589e+000</Im>
#       <Multiplier>1.0000e+000</Multiplier>
#     </PARLog_SatlanticSensor>
#   </sensor>
#   <sensor Channel="6" >
#     <!-- A/D voltage 2, pH -->
#     <pH_Sensor SensorID="43" >
#       <SerialNumber>0363</SerialNumber>
#       <CalibrationDate>15-Apr-19</CalibrationDate>
#       <Slope>4.5952</Slope>
#       <Offset>2.5370</Offset>
#     </pH_Sensor>
#   </sensor>
#   <sensor Channel="7" >
#     <!-- A/D voltage 3, Oxidation Reduction Potential -->
#     <OxidationReductionPotentialSensor SensorID="41" >
#       <SerialNumber>0363</SerialNumber>
#       <CalibrationDate>15-Apr-19</CalibrationDate>
#       <B>2.499480</B>
#       <M>-0.496195</M>
#       <Offset>0.0</Offset>
#     </OxidationReductionPotentialSensor>
#   </sensor>
#   <sensor Channel="8" >
#     <!-- A/D voltage 4, Fluorometer, WET Labs ECO-AFL/FL -->
#     <FluoroWetlabECO_AFL_FL_Sensor SensorID="20" >
#       <SerialNumber>FLNTURT-2496</SerialNumber>
#       <CalibrationDate>08-May-2019</CalibrationDate>
#       <ScaleFactor>5.00000000e+001</ScaleFactor>
#       <!-- Dark output -->
#       <Vblank>0.0550</Vblank>
#     </FluoroWetlabECO_AFL_FL_Sensor>
#   </sensor>
#   <sensor Channel="9" >
#     <!-- A/D voltage 5, Turbidity Meter, WET Labs, ECO-NTU -->
#     <TurbidityMeter SensorID="67" >
#       <SerialNumber>FLNTURT-2496</SerialNumber>
#       <CalibrationDate>08-May-2019</CalibrationDate>
#       <ScaleFactor>189.000000</ScaleFactor>
#       <!-- Dark output -->
#       <DarkVoltage>0.071000</DarkVoltage>
#     </TurbidityMeter>
#   </sensor>
# </Sensors>
# datcnv_date = Sep 18 2019 09:14:13, 7.26.7.129 [datcnv_vars = 14]
# datcnv_in = C:\DATA\082819_fcr45.hex C:\DATA\SBE19plusV2_7809.xmlcon
# datcnv_skipover = 0
# datcnv_ox_hysteresis_correction = yes
# datcnv_ox_tau_correction = yes
# filter_date = Sep 18 2019 09:14:32, 7.26.7.129
# filter_in = C:\DATA\082819_fcr45.cnv
# filter_low_pass_tc_A = 0.030
# filter_low_pass_tc_B = 0.150
# filter_low_pass_A_vars = sbeox0ML/L prdM prdE tv290C
# filter_low_pass_B_vars = depFM dz/dtM sbeox0PS specc c0uS/cm flECO-AFL ph orp par/sat/log turbWETntu0
# alignctd_date = Sep 18 2019 09:15:31, 7.26.7.129
# alignctd_in = C:\DATA\082819_fcr45.cnv
# alignctd_adv = dz/dtM 1.000, sbeox0PS 1.000, specc 1.000, c0uS/cm 1.000, flECO-AFL 1.000, ph 1.000, orp 1.000, turbWETntu0 1.000                                                                                                   
# file_type = ascii
*END*
     -0.261      0.069     5.7901     97.674     36.275  35.176893     1.9800      7.725   223.5235 6.7810e+02     7.7829     -0.261     -0.378    23.2424 0.0000e+00
     -0.241      0.095     5.7857     97.999     36.225  35.133797     1.9927      7.722   223.1595 6.3678e+02     7.4638     -0.244     -0.352    23.3337 0.0000e+00
     -0.206      0.119     5.7875     98.382     36.213  35.116299     2.0062      7.716   222.9080 5.6374e+02     7.4341     -0.205     -0.297    23.4157 0.0000e+00
     -0.162      0.135     5.7948     98.792     36.200  35.092257     2.1249      7.707   222.5485 5.1427e+02     7.4238     -0.158     -0.228    23.4589 0.0000e+00
     -0.119      0.137     5.8068     99.197     36.217  35.096958     2.3528      7.697   222.0814 4.8502e+02     7.4042     -0.118     -0.171    23.4861 0.0000e+00
     -0.079      0.125     5.8255     99.606     36.306  35.173118     2.4813      7.688   221.4765 4.2877e+02     7.3932     -0.076     -0.112    23.4946 0.0000e+00
     -0.043      0.102     5.8501    100.103     36.394  35.251482     2.4916      7.681   220.9139 3.5996e+02     7.4227     -0.037     -0.054    23.4818 0.0000e+00
     -0.018      0.075     5.8780    100.758     36.429  35.282822     2.4677      7.674   220.6134 3.3407e+02     7.3351     -0.013     -0.018    23.4628 0.0000e+00
     -0.007      0.050     5.9032    101.189     36.439  35.298165     2.4263      7.665   220.4243 3.3580e+02     7.0541     -0.004     -0.005    23.4479 0.0000e+00
     -0.005      0.029     5.9284    100.604     36.438  35.310056     2.4082      7.657   220.2616 3.3222e+02     6.8767     -0.004     -0.006    23.4322 0.0000e+00
     -0.006      0.014     5.9541     98.729     36.412  35.299690     2.4136      7.649   220.1943 3.3545e+02     6.8618     -0.006     -0.010    23.4236 0.0000e+00
     -0.006      0.006     5.9991     95.928     36.400  35.299783     2.3960      7.642   220.0417 3.4027e+02     6.7102     -0.007     -0.011    23.4169 0.0000e+00
     -0.004      0.004     6.0506     92.684     36.403  35.311197     2.3350      7.636   219.7922 3.3914e+02     6.4206     -0.004     -0.005    23.4242 0.0000e+00
     -0.002      0.005     6.0175     89.360     36.398  35.310768     2.2902      7.631   219.5871 3.3616e+02     6.2767     -0.002     -0.002    23.4454 0.0000e+00
     -0.001      0.006     5.8916     86.199     36.378  35.294612     2.2887      7.626   219.3692 3.3069e+02     6.2815     -0.001     -0.001    23.4678 0.0000e+00
      0.000      0.006     5.7136     83.483     36.322  35.242797     2.3249      7.622   219.0504 3.3034e+02     6.2821      0.000      0.001    23.4851 0.0000e+00
      0.002      0.005     5.5108     81.476     36.267  35.192024     2.3898      7.617   218.7441 3.3460e+02     6.2512      0.002      0.003    23.4961 0.0000e+00
      0.004      0.004     5.3099     80.157     36.259  35.188467     2.4228      7.612   218.5914 3.3374e+02     6.2024      0.004      0.006    23.5017 0.0000e+00
      0.005      0.003     5.1152     79.250     36.267  35.199796     2.4121      7.607   218.4080 3.3062e+02     6.1835      0.005      0.007    23.5057 0.0000e+00
      0.005      0.001     4.9458     78.512     36.266  35.202074     2.3902      7.602   218.2479 3.2852e+02     6.2200      0.005      0.008    23.5092 0.0000e+00
      0.005      0.000     4.8268     77.812     36.278  35.216013     2.3755      7.596   218.2041 3.2634e+02     6.2823      0.006      0.009    23.5119 0.0000e+00
      0.005     -0.002     4.7563     77.121     36.304  35.241388     2.3732      7.590   218.0500 3.2620e+02     6.2816      0.005      0.008    23.5176 0.0000e+00
      0.004     -0.002     4.7065     76.489     36.318  35.255019     2.3707      7.586   217.8474 3.2853e+02     6.2116      0.003      0.005    23.5243 0.0000e+00
      0.003     -0.002     4.6646     75.953     36.316  35.253885     2.3375      7.582   217.6477 3.3018e+02     6.2221      0.002      0.003    23.5290 0.0000e+00
      0.003     -0.002     4.6239     75.524     36.288  35.227676     2.2832      7.578   217.3565 3.3136e+02     6.3102      0.003      0.003    23.5318 0.0000e+00
      0.003     -0.001     4.5805     75.275     36.249  35.192008     2.2519      7.574   217.0801 3.3312e+02     6.3275      0.003      0.004    23.5319 0.0000e+00
      0.002     -0.001     4.5424     75.346     36.258  35.203435     2.2363      7.569   216.9730 3.3512e+02     6.2665      0.002      0.003    23.5308 0.0000e+00
      0.002      0.000     4.5112     75.859     36.292  35.238902     2.2244      7.565   216.9214 3.3583e+02     6.2277      0.001      0.002    23.5315 0.0000e+00
      0.002      0.001     4.4837     76.789     36.291  35.240035     2.2119      7.561   216.7144 3.3483e+02     6.2522      0.002      0.003    23.5334 0.0000e+00
      0.001      0.002     4.4657     77.971     36.266  35.217145     2.1980      7.557   216.5350 3.3569e+02     6.3007      0.001      0.002    23.5361 0.0000e+00
      0.001      0.004     4.4661     79.235     36.265  35.216009     2.1860      7.554   216.5591 3.3659e+02     6.3217      0.001      0.001    23.5397 0.0000e+00
      0.002      0.006     4.4966     80.423     36.276  35.226301     2.1711      7.549   216.5766 3.3384e+02     6.2779      0.002      0.003    23.5437 0.0000e+00
      0.005      0.006     4.5564     81.410     36.263  35.214649     2.1836      7.544   216.4880 3.3007e+02     6.1642      0.005      0.008    23.5472 0.0000e+00
      0.009      0.005     4.6293     82.131     36.248  35.202060     2.2234      7.539   216.3476 3.2711e+02     6.0605      0.008      0.012    23.5485 0.0000e+00
      0.011      0.003     4.7080     82.555     36.246  35.201028     2.2452      7.534   216.1694 3.2642e+02     6.0408      0.010      0.015    23.5487 0.0000e+00
      0.011      0.001     4.7816     82.681     36.246  35.202171     2.2481      7.529   215.9686 3.2972e+02     6.0573      0.012      0.017    23.5483 0.0000e+00
      0.010     -0.001     4.8408     82.557     36.259  35.215884     2.2496      7.524   215.8116 3.3407e+02     6.1611      0.011      0.016    23.5489 0.0000e+00
      0.008     -0.002     4.8845     82.281     36.283  35.239898     2.2455      7.519   215.7343 3.3825e+02     6.3786      0.008      0.011    23.5511 0.0000e+00
      0.006     -0.002     4.9093     81.952     36.282  35.238649     2.2416      7.514   215.7225 3.3976e+02     6.4915      0.006      0.008    23.5533 0.0000e+00
      0.006     -0.001     4.9158     81.625     36.243  35.200788     2.2463      7.509   215.7553 3.3552e+02     6.4769      0.005      0.007    23.5556 0.0000e+00
      0.007      0.000     4.9061     81.311     36.204  35.162926     2.2598      7.504   215.7005 3.3022e+02     6.3654      0.006      0.008    23.5570 0.0000e+00
      0.008      0.002     4.8871     80.985     36.204  35.161678     2.2824      7.501   215.5766 3.2888e+02     6.1601      0.008      0.011    23.5575 0.0000e+00
      0.009      0.002     4.8669     80.628     36.230  35.185693     2.3038      7.496   215.4619 3.3008e+02     6.0594      0.009      0.013    23.5572 0.0000e+00
      0.009      0.001     4.8469     80.241     36.245  35.199416     2.3096      7.492   215.3458 3.2876e+02     6.0654      0.010      0.015    23.5561 0.0000e+00
      0.009      0.000     4.8292     79.819     36.246  35.200664     2.2836      7.488   215.2050 3.2674e+02     6.1009      0.009      0.014    23.5557 0.0000e+00
      0.009     -0.001     4.8106     79.379     36.246  35.200776     2.2403      7.483   215.0508 3.2531e+02     6.1612      0.008      0.012    23.5554 0.0000e+00
      0.008     -0.001     4.7888     78.950     36.246  35.200776     2.2195      7.478   214.9431 3.2350e+02     6.2048      0.008      0.011    23.5539 0.0000e+00
      0.007     -0.001     4.7668     78.558     36.246  35.200663     2.2230      7.473   214.8499 3.2630e+02     6.2673      0.007      0.010    23.5520 0.0000e+00
      0.006      0.000     4.7413     78.268     36.246  35.199404     2.2311      7.469   214.7844 3.3269e+02     6.3263      0.006      0.009    23.5514 0.0000e+00
      0.006      0.001     4.7139     78.129     36.234  35.185557     2.2472      7.465   214.7527 3.3437e+02     6.2965      0.006      0.009    23.5522 0.0000e+00
      0.007      0.003     4.6888     78.136     36.210  35.160171     2.2699      7.461   214.7250 3.3039e+02     6.2670      0.006      0.009    23.5529 0.0000e+00
      0.008      0.006     4.6637     78.286     36.198  35.146333     2.2810      7.458   214.7080 3.2694e+02     6.3302      0.008      0.011    23.5527 0.0000e+00
      0.009      0.008     4.6447     78.546     36.198  35.145177     2.2864      7.454   214.6333 3.2437e+02     6.3731      0.009      0.013    23.5517 0.0000e+00
      0.012      0.010     4.6380     78.826     36.200  35.146196     2.2917      7.450   214.4245 3.2196e+02     6.3271      0.011      0.016    23.5484 0.0000e+00
      0.015      0.012     4.6383     79.046     36.213  35.158646     2.2928      7.445   214.1621 3.2260e+02     6.2967      0.014      0.021    23.5446 0.0000e+00
      0.019      0.013     4.6476     79.152     36.225  35.168770     2.2917      7.440   214.0413 3.2401e+02     6.3011      0.019      0.027    23.5429 0.0000e+00
      0.023      0.013     4.6660     79.102     36.200  35.141666     2.2949      7.436   213.9971 3.2324e+02     6.2828      0.023      0.032    23.5409 0.0000e+00
      0.027      0.012     4.6842     78.861     36.148  35.084807     2.3231      7.431   213.7996 3.2381e+02     6.2716      0.027      0.038    23.5386 0.0000e+00
      0.031      0.009     4.6985     78.440     36.121  35.052491     2.3627      7.427   213.6316 3.2800e+02     6.2638      0.032      0.046    23.5381 0.0000e+00
      0.034      0.006     4.7055     77.884     36.140  35.068266     2.3753      7.422   213.6860 3.2975e+02     6.2543      0.035      0.050    23.5380 0.0000e+00
      0.034      0.002     4.7040     77.243     36.159  35.085137     2.3722      7.418   213.8557 3.2714e+02     6.2547      0.034      0.049    23.5337 0.0000e+00
      0.033      0.000     4.6904     76.577     36.140  35.066070     2.3867      7.413   213.9631 3.2771e+02     6.2358      0.032      0.046    23.5228 0.0000e+00
      0.031     -0.002     4.6646     75.915     36.101  35.028135     2.4107      7.410   213.9513 3.3231e+02     6.2228      0.031      0.045    23.5136 0.0000e+00
      0.031     -0.003     4.6315     75.261     36.080  35.007267     2.4199      7.407   213.9713 3.3316e+02     6.2285      0.030      0.044    23.5106 0.0000e+00
      0.030     -0.003     4.5916     74.649     36.079  35.004163     2.4192      7.402   213.9473 3.3068e+02     6.2386      0.030      0.043    23.5100 0.0000e+00
      0.030     -0.002     4.5513     74.085     36.068  34.990603     2.4374      7.397   213.8326 3.3245e+02     6.2141      0.029      0.043    23.5099 0.0000e+00
      0.030     -0.002     4.5128     73.516     36.051  34.970236     2.4758      7.393   213.7892 3.3513e+02     6.1287      0.029      0.042    23.5092 0.0000e+00
      0.029     -0.002     4.4727     72.924     36.034  34.948310     2.4928      7.388   213.7671 3.3639e+02     6.0591      0.028      0.041    23.5075 0.0000e+00
