* Sea-Bird SBE19plus  Data File:
* FileName = C:\DATA\SBE19plus_01907809_2019_09_02_0002.hex
* Software version 2.8.0.119 SB_Terminal.dll
* Temperature SN = 7809
* Conductivity SN = 7809
* System UpLoad Time = Sep 02 2019 11:49:34
* <ApplicationData>
* <Seaterm232>
* <SoftwareVersion>2.8.0.119</SoftwareVersion>
* <BuildDate>07-Nov-2018</BuildDate>
* </Seaterm232>
* </ApplicationData>
* cast   2 02 Sep 2019 11:19:13 samples 463 to 902, avg = 1, stop = mag switch
# nquan = 15
# nvalues = 396                         
# units = specified
# name 0 = depFM: Depth [fresh water, m]
# name 1 = dz/dtM: Descent Rate [m/s]
# name 2 = sbeox0ML/L: Oxygen, SBE 43 [ml/l]
# name 3 = sbeox0PS: Oxygen, SBE 43 [% saturation]
# name 4 = specc: Specific Conductance [uS/cm]
# name 5 = c0uS/cm: Conductivity [uS/cm]
# name 6 = flECO-AFL: Fluorescence, WET Labs ECO-AFL/FL [mg/m^3]
# name 7 = ph: pH
# name 8 = orp: Oxidation Reduction Potential [mV]
# name 9 = par/sat/log: PAR/Logarithmic, Satlantic
# name 10 = turbWETntu0: Turbidity, WET Labs ECO [NTU]
# name 11 = prdM: Pressure, Strain Gauge [db]
# name 12 = prdE: Pressure, Strain Gauge [psi]
# name 13 = tv290C: Temperature [ITS-90, deg C]
# name 14 = flag:  0.000e+00
# span 0 =     -0.553,      3.222       
# span 1 =     -0.185,      0.313       
# span 2 =    -0.3260,     6.7084       
# span 3 =     -5.005,    114.388       
# span 4 =      1.224,    109.051       
# span 5 =   1.211530,  94.713801       
# span 6 =    -2.0747,     3.6598       
# span 7 =      6.129,      8.305       
# span 8 =   157.6525,  1240.2295       
# span 9 = 7.9290e+00, 2.2657e+03       
# span 10 =    -2.0663,    54.3178      
# span 11 =     -0.543,      3.162      
# span 12 =     -0.788,      4.586      
# span 13 =    18.1911,    25.2073      
# span 14 = 0.0000e+00, 0.0000e+00      
# interval = seconds: 0.25
# start_time = Sep 02 2019 11:19:13 [Instrument's time stamp, header]
# bad_flag = -9.990e-29
# <Sensors count="9" >
#   <sensor Channel="1" >
#     <!-- Count, Temperature -->
#     <TemperatureSensor SensorID="58" >
#       <SerialNumber>7809</SerialNumber>
#       <CalibrationDate>24-Mar-19</CalibrationDate>
#       <A0>1.21792325e-003</A0>
#       <A1>2.81669265e-004</A1>
#       <A2>-1.60333336e-006</A2>
#       <A3>1.98414625e-007</A3>
#       <Slope>1.00000000</Slope>
#       <Offset>0.0000</Offset>
#     </TemperatureSensor>
#   </sensor>
#   <sensor Channel="2" >
#     <!-- Frequency 0, Conductivity -->
#     <ConductivitySensor SensorID="3" >
#       <SerialNumber>7809</SerialNumber>
#       <CalibrationDate>24-Mar-19</CalibrationDate>
#       <UseG_J>1</UseG_J>
#       <!-- Cell const and series R are applicable only for wide range sensors. -->
#       <SeriesR>0.0000</SeriesR>
#       <CellConst>2000.0000</CellConst>
#       <ConductivityType>0</ConductivityType>
#       <Coefficients equation="0" >
#         <A>0.00000000e+000</A>
#         <B>0.00000000e+000</B>
#         <C>0.00000000e+000</C>
#         <D>0.00000000e+000</D>
#         <M>0.0</M>
#         <CPcor>-9.57000000e-008</CPcor>
#       </Coefficients>
#       <Coefficients equation="1" >
#         <G>-1.00589325e+000</G>
#         <H>1.26816302e-001</H>
#         <I>-1.51560448e-004</I>
#         <J>2.67137274e-005</J>
#         <CPcor>-9.57000000e-008</CPcor>
#         <CTcor>3.2500e-006</CTcor>
#         <!-- WBOTC not applicable unless ConductivityType = 1. -->
#         <WBOTC>0.00000000e+000</WBOTC>
#       </Coefficients>
#       <Slope>1.00000000</Slope>
#       <Offset>0.00000</Offset>
#     </ConductivitySensor>
#   </sensor>
#   <sensor Channel="3" >
#     <!-- Count, Pressure, Strain Gauge -->
#     <PressureSensor SensorID="46" >
#       <SerialNumber>7809</SerialNumber>
#       <CalibrationDate>11-Mar-19</CalibrationDate>
#       <PA0>4.56561833e-002</PA0>
#       <PA1>4.85095118e-004</PA1>
#       <PA2>-2.88327090e-012</PA2>
#       <PTEMPA0>-5.48784562e+001</PTEMPA0>
#       <PTEMPA1>5.53756816e+001</PTEMPA1>
#       <PTEMPA2>-5.86727098e-001</PTEMPA2>
#       <PTCA0>5.25246745e+005</PTCA0>
#       <PTCA1>1.22304214e+001</PTCA1>
#       <PTCA2>-3.56745036e-001</PTCA2>
#       <PTCB0>2.51668750e+001</PTCB0>
#       <PTCB1>3.75000000e-004</PTCB1>
#       <PTCB2>0.00000000e+000</PTCB2>
#       <Offset>0.000000</Offset>
#     </PressureSensor>
#   </sensor>
#   <sensor Channel="4" >
#     <!-- A/D voltage 0, Oxygen, SBE 43 -->
#     <OxygenSensor SensorID="38" >
#       <SerialNumber>0434</SerialNumber>
#       <CalibrationDate>13-Apr-19</CalibrationDate>
#       <Use2007Equation>1</Use2007Equation>
#       <CalibrationCoefficients equation="0" >
#         <!-- Coefficients for Owens-Millard equation. -->
#         <Boc>0.0000</Boc>
#         <Soc>0.0000e+000</Soc>
#         <offset>0.0000</offset>
#         <Pcor>0.00e+000</Pcor>
#         <Tcor>0.0000</Tcor>
#         <Tau>0.0</Tau>
#       </CalibrationCoefficients>
#       <CalibrationCoefficients equation="1" >
#         <!-- Coefficients for Sea-Bird equation - SBE calibration in 2007 and later. -->
#         <Soc>4.2007e-001</Soc>
#         <offset>-0.6109</offset>
#         <A>-4.3656e-003</A>
#         <B> 1.7017e-004</B>
#         <C>-2.5341e-006</C>
#         <D0> 2.5826e+000</D0>
#         <D1> 1.92634e-004</D1>
#         <D2>-4.64803e-002</D2>
#         <E> 3.6000e-002</E>
#         <Tau20> 1.1800</Tau20>
#         <H1>-3.3000e-002</H1>
#         <H2> 5.0000e+003</H2>
#         <H3> 1.4500e+003</H3>
#       </CalibrationCoefficients>
#     </OxygenSensor>
#   </sensor>
#   <sensor Channel="5" >
#     <!-- A/D voltage 1, PAR/Logarithmic, Satlantic -->
#     <PARLog_SatlanticSensor SensorID="76" >
#       <SerialNumber>1122</SerialNumber>
#       <CalibrationDate>08-May-2019</CalibrationDate>
#       <a0>9.7456e-001</a0>
#       <a1>8.1640e-001</a1>
#       <Im>1.3589e+000</Im>
#       <Multiplier>1.0000e+000</Multiplier>
#     </PARLog_SatlanticSensor>
#   </sensor>
#   <sensor Channel="6" >
#     <!-- A/D voltage 2, pH -->
#     <pH_Sensor SensorID="43" >
#       <SerialNumber>0363</SerialNumber>
#       <CalibrationDate>15-Apr-19</CalibrationDate>
#       <Slope>4.5952</Slope>
#       <Offset>2.5370</Offset>
#     </pH_Sensor>
#   </sensor>
#   <sensor Channel="7" >
#     <!-- A/D voltage 3, Oxidation Reduction Potential -->
#     <OxidationReductionPotentialSensor SensorID="41" >
#       <SerialNumber>0363</SerialNumber>
#       <CalibrationDate>15-Apr-19</CalibrationDate>
#       <B>2.499480</B>
#       <M>-0.496195</M>
#       <Offset>0.0</Offset>
#     </OxidationReductionPotentialSensor>
#   </sensor>
#   <sensor Channel="8" >
#     <!-- A/D voltage 4, Fluorometer, WET Labs ECO-AFL/FL -->
#     <FluoroWetlabECO_AFL_FL_Sensor SensorID="20" >
#       <SerialNumber>FLNTURT-2496</SerialNumber>
#       <CalibrationDate>08-May-2019</CalibrationDate>
#       <ScaleFactor>5.00000000e+001</ScaleFactor>
#       <!-- Dark output -->
#       <Vblank>0.0550</Vblank>
#     </FluoroWetlabECO_AFL_FL_Sensor>
#   </sensor>
#   <sensor Channel="9" >
#     <!-- A/D voltage 5, Turbidity Meter, WET Labs, ECO-NTU -->
#     <TurbidityMeter SensorID="67" >
#       <SerialNumber>FLNTURT-2496</SerialNumber>
#       <CalibrationDate>08-May-2019</CalibrationDate>
#       <ScaleFactor>189.000000</ScaleFactor>
#       <!-- Dark output -->
#       <DarkVoltage>0.071000</DarkVoltage>
#     </TurbidityMeter>
#   </sensor>
# </Sensors>
# datcnv_date = Sep 18 2019 09:14:15, 7.26.7.129 [datcnv_vars = 14]
# datcnv_in = C:\DATA\090219_fcr20.hex C:\DATA\SBE19plusV2_7809.xmlcon
# datcnv_skipover = 0
# datcnv_ox_hysteresis_correction = yes
# datcnv_ox_tau_correction = yes
# filter_date = Sep 18 2019 09:14:32, 7.26.7.129
# filter_in = C:\DATA\090219_fcr20.cnv
# filter_low_pass_tc_A = 0.030
# filter_low_pass_tc_B = 0.150
# filter_low_pass_A_vars = sbeox0ML/L prdM prdE tv290C
# filter_low_pass_B_vars = depFM dz/dtM sbeox0PS specc c0uS/cm flECO-AFL ph orp par/sat/log turbWETntu0
# alignctd_date = Sep 18 2019 09:15:31, 7.26.7.129
# alignctd_in = C:\DATA\090219_fcr20.cnv
# alignctd_adv = dz/dtM 1.000, sbeox0PS 1.000, specc 1.000, c0uS/cm 1.000, flECO-AFL 1.000, ph 1.000, orp 1.000, turbWETntu0 1.000                                                                                                   
# file_type = ascii
*END*
     -0.553 8.3192e-16     5.7099     97.804      1.224   1.211530    -0.1116      6.232  1240.2295 7.8372e+02    -0.4621     -0.542     -0.786    24.4963 0.0000e+00
     -0.553 9.1511e-15     5.7086     97.800      1.261   1.248601    -0.1089      6.139  1240.2295 1.7012e+03    -0.4286     -0.543     -0.787    24.4964 0.0000e+00
     -0.553 1.0066e-13     5.7081     97.800      1.280   1.267551    -0.1207      6.129  1240.2295 2.1482e+03    -0.4443     -0.543     -0.787    24.4967 0.0000e+00
     -0.552 1.1073e-12     5.7079     97.814      1.263   1.250579    -0.1247      6.157  1240.2295 1.7708e+03    -0.4558     -0.542     -0.786    24.4965 0.0000e+00
     -0.552 1.2180e-11     5.7076     97.826      1.246   1.233469    -0.1050      6.182  1240.2295 9.8352e+02    -0.4691     -0.542     -0.786    24.4966 0.0000e+00
     -0.553 1.3398e-10     5.7075     97.826      1.263   1.250766    -0.0982      6.196  1240.2295 6.1016e+02    -0.5066     -0.542     -0.786    24.4964 0.0000e+00
     -0.553 1.4738e-09     5.7068     97.829      1.282   1.269631    -0.1117      6.202  1240.2295 1.0215e+03    -0.5486     -0.542     -0.786    24.4964 0.0000e+00
     -0.553 1.6212e-08     5.7083     97.837      1.284   1.271479    -0.1304      6.205  1240.2293 1.6673e+03    -0.5510     -0.542     -0.787    24.4963 0.0000e+00
     -0.553 1.7833e-07     5.7096     97.831      1.286   1.273105    -0.1598      6.208  1240.2278 2.0060e+03    -0.5025     -0.542     -0.786    24.4958 0.0000e+00
     -0.553      0.000     5.7088     97.814      1.302   1.289293    -0.1720      6.211  1240.2103 2.0832e+03    -0.4869     -0.542     -0.787    24.4956 0.0000e+00
     -0.553      0.000     5.7089     97.811      1.354   1.340487    -0.1566      6.216  1240.0181 2.1052e+03    -0.4937     -0.542     -0.787    24.4952 0.0000e+00
     -0.553      0.000     5.7103     97.825      1.655   1.638638    -0.1382      6.227  1237.9043 2.1099e+03    -0.4537     -0.542     -0.787    24.4950 0.0000e+00
     -0.553      0.003     5.7101     97.845      4.814   4.767493    -0.1230      6.298  1214.6523 2.1301e+03    -0.4285     -0.542     -0.786    24.4941 0.0000e+00
     -0.553      0.014     5.7079     97.865     15.219  15.087656    -0.1201      6.519   958.8807 2.1800e+03    -0.4514     -0.542     -0.787    24.4939 0.0000e+00
     -0.553      0.041     5.7081     97.876     28.664  28.460062    -0.1642      6.904   486.8641 2.2346e+03    -0.5011     -0.543     -0.787    24.4924 0.0000e+00
     -0.552      0.085     5.7092     97.878     35.791  35.613273    -0.6643      7.347   223.9531 2.2654e+03    -0.9320     -0.542     -0.786    24.4932 0.0000e+00
     -0.543      0.142     5.7106     97.884     37.154  37.060219    -1.5810      7.727   194.8247 2.2657e+03    -1.6957     -0.543     -0.788    24.4904 0.0000e+00
     -0.508      0.203     5.7111     97.947     37.344  37.323267    -2.0747      7.991   189.8265 2.2119e+03    -2.0663     -0.514     -0.745    24.4982 0.0000e+00
     -0.435      0.258     5.7017     98.157     37.316  37.333967    -2.0559      8.160   183.1365 1.8032e+03    -1.8079     -0.434     -0.629    24.5902 0.0000e+00
     -0.340      0.298     5.6857     98.583     37.240  37.253130    -1.3195      8.257   171.1528 1.3862e+03     1.6582     -0.335     -0.486    24.7425 0.0000e+00
     -0.240      0.313     5.6712     99.183     37.195  37.171022     0.0403      8.297   170.7223 1.6337e+03     8.0866     -0.233     -0.339    24.8738 0.0000e+00
     -0.145      0.301     5.6616     99.849     37.170  37.102833     0.7746      8.305   184.2123 1.9276e+03    11.6171     -0.136     -0.198    24.9819 0.0000e+00
     -0.065      0.266     5.6651    100.524     37.166  37.063341     0.8308      8.301   191.7788 1.4946e+03    11.9345     -0.058     -0.083    25.0430 0.0000e+00
     -0.003      0.220     5.6927    101.170     37.202  37.074311     0.8410      8.287   191.9998 6.5244e+02    11.8252      0.003      0.004    25.0256 0.0000e+00
      0.042      0.172     5.7374    101.746     37.254  37.108486     0.9064      8.262   192.2187 1.8424e+02    10.6227      0.046      0.066    24.9633 0.0000e+00
      0.072      0.127     5.7830    102.197     37.254  37.095677     1.0233      8.239   192.6191 1.2442e+02     8.4730      0.073      0.106    24.8993 0.0000e+00
      0.096      0.088     5.8282    102.457     37.215  37.046367     1.0930      8.225   192.8821 1.1125e+02     7.2994      0.095      0.137    24.8508 0.0000e+00
      0.116      0.056     5.8698    102.508     37.199  37.020063     1.0985      8.214   192.9898 1.0545e+02     7.1811      0.116      0.170    24.8199 0.0000e+00
      0.126      0.031     5.9065    102.399     37.222  37.031522     1.1075      8.199   193.4052 1.0043e+02     7.2074      0.127      0.185    24.7975 0.0000e+00
      0.126      0.013     5.9368    102.219     37.263  37.057954     1.1326      8.183   193.8611 9.8501e+01     7.2899      0.127      0.182    24.7789 0.0000e+00
      0.121     -0.001     5.9533    101.990     37.304  37.085729     1.1511      8.171   193.7692 9.9796e+01     7.3259      0.120      0.173    24.7661 0.0000e+00
      0.115     -0.009     5.9568    101.589     37.344  37.113432     1.1656      8.163   193.3277 1.0086e+02     7.2829      0.111      0.162    24.7552 0.0000e+00
      0.112     -0.010     5.9495    100.746     37.379  37.139007     1.1688      8.157   192.9969 1.0060e+02     7.2606      0.109      0.158    24.7400 0.0000e+00
      0.110     -0.008     5.9405     99.246     37.391  37.141042     1.1553      8.152   192.9524 1.0038e+02     7.3190      0.109      0.159    24.7190 0.0000e+00
      0.108     -0.006     5.9319     97.180     37.397  37.138016     1.1499      8.143   193.2194 1.0254e+02     7.3990      0.106      0.153    24.6991 0.0000e+00
      0.106     -0.009     5.9158     94.768     37.494  37.229355     1.1551      8.133   193.4724 1.0461e+02     7.4409      0.101      0.148    24.6853 0.0000e+00
      0.109     -0.014     5.8757     92.234     37.686  37.420240     1.1403      8.125   193.6888 1.0309e+02     7.4003      0.107      0.156    24.6733 0.0000e+00
      0.111     -0.018     5.7856     89.962     37.802  37.541759     1.1106      8.117   194.0288 1.0198e+02     7.3009      0.114      0.165    24.6599 0.0000e+00
      0.102     -0.018     5.6612     88.364     37.745  37.492616     1.0987      8.105   194.2273 1.0593e+02     7.2216      0.104      0.151    24.6475 0.0000e+00
      0.087     -0.016     5.5198     87.613     37.644  37.397351     1.1002      8.088   194.3678 1.1122e+02     7.1953      0.084      0.122    24.6383 0.0000e+00
      0.077     -0.012     5.3627     87.493     37.650  37.405513     1.0852      8.063   194.5240 1.1078e+02     7.2453      0.069      0.100    24.6380 0.0000e+00
      0.077     -0.006     5.2202     87.638     37.709  37.464361     1.0474      8.037   194.4809 1.0717e+02     7.3358      0.074      0.107    24.6490 0.0000e+00
      0.084      0.000     5.1210     87.798     37.719  37.474136     1.0246      8.020   194.2766 1.0543e+02     7.4038      0.083      0.121    24.6614 0.0000e+00
      0.089      0.005     5.0828     87.798     37.706  37.460229     1.0266      8.011   193.8603 1.0458e+02     7.4457      0.088      0.128    24.6675 0.0000e+00
      0.092      0.007     5.0855     87.491     37.671  37.423153     1.0286      8.006   190.3086 1.0432e+02     7.4480      0.090      0.131    24.6693 0.0000e+00
      0.092      0.009     5.0972     86.769     37.595  37.343223     1.0399      7.997   181.0168 1.0433e+02     7.3660      0.091      0.132    24.6699 0.0000e+00
      0.090      0.019     5.1104     85.631     37.513  37.255497     1.0684      7.978   171.3389 1.0419e+02     7.2410      0.089      0.129    24.6701 0.0000e+00
      0.088      0.036     5.1133     84.389     37.450  37.187619     1.0867      7.959   166.8188 1.0384e+02     7.1824      0.086      0.124    24.6692 0.0000e+00
      0.091      0.055     5.0978     83.629     37.422  37.157243     1.0962      7.945   165.2542 1.0244e+02     7.2136      0.083      0.121    24.6661 0.0000e+00
      0.107      0.069     5.0581     83.748     37.409  37.142108     1.1322      7.935   163.9499 9.7762e+01     7.3567      0.096      0.139    24.6603 0.0000e+00
      0.142      0.073     4.9867     84.573     37.399  37.131574     1.1837      7.928   163.0085 9.0577e+01     7.5688      0.140      0.202    24.6513 0.0000e+00
      0.180      0.067     4.9006     85.636     37.425  37.156827     1.2065      7.924   162.4760 8.6127e+01     7.6809      0.182      0.263    24.6429 0.0000e+00
      0.205      0.054     4.8454     86.634     37.462  37.193545     1.2089      7.920   162.1570 8.4823e+01     7.6637      0.207      0.299    24.6393 0.0000e+00
      0.212      0.035     4.8584     87.428     37.464  37.194690     1.2127      7.910   161.9913 8.4976e+01     7.5900      0.214      0.311    24.6383 0.0000e+00
      0.202      0.014     4.9193     87.892     37.441  37.170662     1.2087      7.895   161.8497 8.6107e+01     7.4779      0.197      0.286    24.6372 0.0000e+00
      0.192     -0.001     4.9865     87.934     37.430  37.156927     1.2050      7.882   161.6497 8.7046e+01     7.3902      0.182      0.263    24.6360 0.0000e+00
      0.194     -0.006     5.0461     87.616     37.430  37.155566     1.2104      7.872   161.2936 8.7890e+01     7.3814      0.190      0.275    24.6358 0.0000e+00
      0.199      0.000     5.0954     87.186     37.430  37.154194     1.1958      7.859   160.8131 8.9522e+01     7.4044      0.200      0.290    24.6354 0.0000e+00
      0.194      0.013     5.1252     86.862     37.420  37.140334     1.1586      7.839   160.2282 9.1005e+01     7.4393      0.189      0.274    24.6325 0.0000e+00
      0.189      0.022     5.1271     86.571     37.400  37.114933     1.1421      7.815   159.4703 9.0940e+01     7.4743      0.179      0.260    24.6292 0.0000e+00
      0.197      0.026     5.1028     86.129     37.391  37.100961     1.1527      7.799   158.8766 8.9936e+01     7.4683      0.190      0.275    24.6273 0.0000e+00
      0.216      0.029     5.0709     85.571     37.393  37.098340     1.1909      7.792   158.5560 8.8851e+01     7.4977      0.212      0.309    24.6256 0.0000e+00
      0.234      0.034     5.0557     85.101     37.382  37.083232     1.2488      7.780   158.3471 8.7967e+01     7.6001      0.234      0.340    24.6208 0.0000e+00
      0.239      0.036     5.0457     84.860     37.350  37.045233     1.2808      7.755   158.3298 8.7055e+01     7.6575      0.238      0.345    24.6130 0.0000e+00
      0.238      0.031     5.0190     84.804     37.331  37.019730     1.2829      7.731   158.4331 8.5722e+01     7.6335      0.230      0.334    24.6058 0.0000e+00
      0.242      0.023     4.9817     84.829     37.346  37.028761     1.2741      7.717   158.3056 8.4272e+01     7.5074      0.231      0.336    24.6003 0.0000e+00
      0.257      0.017     4.9510     84.957     37.351  37.027478     1.2695      7.709   157.9066 8.3415e+01     7.3128      0.253      0.368    24.5948 0.0000e+00
      0.268      0.013     4.9395     85.282     37.334  37.004213     1.2800      7.701   157.6525 8.3205e+01     7.2148      0.270      0.392    24.5870 0.0000e+00
