* Sea-Bird SBE19plus  Data File:
* FileName = C:\Users\CareyLab\Documents\DATA_moored\090219_fcr50_0001.hex
* Software version 2.8.0.119 SB_Terminal.dll
* Temperature SN = 7809
* Conductivity SN = 7809
* System UpLoad Time = Sep 02 2019 09:36:55
* <ApplicationData>
* <Seaterm232>
* <SoftwareVersion>2.8.0.119</SoftwareVersion>
* <BuildDate>07-Nov-2018</BuildDate>
* </Seaterm232>
* </ApplicationData>
* cast   1 02 Sep 2019 09:26:25 samples 1 to 996, avg = 1, stop = mag switch
# nquan = 15
# nvalues = 861                         
# units = specified
# name 0 = depFM: Depth [fresh water, m]
# name 1 = dz/dtM: Descent Rate [m/s]
# name 2 = sbeox0ML/L: Oxygen, SBE 43 [ml/l]
# name 3 = sbeox0PS: Oxygen, SBE 43 [% saturation]
# name 4 = specc: Specific Conductance [uS/cm]
# name 5 = c0uS/cm: Conductivity [uS/cm]
# name 6 = flECO-AFL: Fluorescence, WET Labs ECO-AFL/FL [mg/m^3]
# name 7 = ph: pH
# name 8 = orp: Oxidation Reduction Potential [mV]
# name 9 = par/sat/log: PAR/Logarithmic, Satlantic
# name 10 = turbWETntu0: Turbidity, WET Labs ECO [NTU]
# name 11 = prdM: Pressure, Strain Gauge [db]
# name 12 = prdE: Pressure, Strain Gauge [psi]
# name 13 = tv290C: Temperature [ITS-90, deg C]
# name 14 = flag:  0.000e+00
# span 0 =     -0.552,      9.647       
# span 1 =     -0.166,      4.275       
# span 2 =     0.0087,     6.0160       
# span 3 =      0.574,    100.251       
# span 4 =      1.577,    275.624       
# span 5 =   1.475674, 202.480005       
# span 6 =    -0.6964,    16.6462       
# span 7 =      5.177,      7.718       
# span 8 = -1240.7455,   432.2340       
# span 9 = 1.2359e-01, 1.1747e+03       
# span 10 =    -0.5294,   323.6334      
# span 11 =     -0.542,      9.461      
# span 12 =     -0.786,     13.722      
# span 13 =    11.5248,    24.4566      
# span 14 = 0.0000e+00, 0.0000e+00      
# interval = seconds: 0.25
# start_time = Sep 02 2019 09:26:25 [Instrument's time stamp, header]
# bad_flag = -9.990e-29
# <Sensors count="9" >
#   <sensor Channel="1" >
#     <!-- Count, Temperature -->
#     <TemperatureSensor SensorID="58" >
#       <SerialNumber>7809</SerialNumber>
#       <CalibrationDate>24-Mar-19</CalibrationDate>
#       <A0>1.21792325e-003</A0>
#       <A1>2.81669265e-004</A1>
#       <A2>-1.60333336e-006</A2>
#       <A3>1.98414625e-007</A3>
#       <Slope>1.00000000</Slope>
#       <Offset>0.0000</Offset>
#     </TemperatureSensor>
#   </sensor>
#   <sensor Channel="2" >
#     <!-- Frequency 0, Conductivity -->
#     <ConductivitySensor SensorID="3" >
#       <SerialNumber>7809</SerialNumber>
#       <CalibrationDate>24-Mar-19</CalibrationDate>
#       <UseG_J>1</UseG_J>
#       <!-- Cell const and series R are applicable only for wide range sensors. -->
#       <SeriesR>0.0000</SeriesR>
#       <CellConst>2000.0000</CellConst>
#       <ConductivityType>0</ConductivityType>
#       <Coefficients equation="0" >
#         <A>0.00000000e+000</A>
#         <B>0.00000000e+000</B>
#         <C>0.00000000e+000</C>
#         <D>0.00000000e+000</D>
#         <M>0.0</M>
#         <CPcor>-9.57000000e-008</CPcor>
#       </Coefficients>
#       <Coefficients equation="1" >
#         <G>-1.00589325e+000</G>
#         <H>1.26816302e-001</H>
#         <I>-1.51560448e-004</I>
#         <J>2.67137274e-005</J>
#         <CPcor>-9.57000000e-008</CPcor>
#         <CTcor>3.2500e-006</CTcor>
#         <!-- WBOTC not applicable unless ConductivityType = 1. -->
#         <WBOTC>0.00000000e+000</WBOTC>
#       </Coefficients>
#       <Slope>1.00000000</Slope>
#       <Offset>0.00000</Offset>
#     </ConductivitySensor>
#   </sensor>
#   <sensor Channel="3" >
#     <!-- Count, Pressure, Strain Gauge -->
#     <PressureSensor SensorID="46" >
#       <SerialNumber>7809</SerialNumber>
#       <CalibrationDate>11-Mar-19</CalibrationDate>
#       <PA0>4.56561833e-002</PA0>
#       <PA1>4.85095118e-004</PA1>
#       <PA2>-2.88327090e-012</PA2>
#       <PTEMPA0>-5.48784562e+001</PTEMPA0>
#       <PTEMPA1>5.53756816e+001</PTEMPA1>
#       <PTEMPA2>-5.86727098e-001</PTEMPA2>
#       <PTCA0>5.25246745e+005</PTCA0>
#       <PTCA1>1.22304214e+001</PTCA1>
#       <PTCA2>-3.56745036e-001</PTCA2>
#       <PTCB0>2.51668750e+001</PTCB0>
#       <PTCB1>3.75000000e-004</PTCB1>
#       <PTCB2>0.00000000e+000</PTCB2>
#       <Offset>0.000000</Offset>
#     </PressureSensor>
#   </sensor>
#   <sensor Channel="4" >
#     <!-- A/D voltage 0, Oxygen, SBE 43 -->
#     <OxygenSensor SensorID="38" >
#       <SerialNumber>0434</SerialNumber>
#       <CalibrationDate>13-Apr-19</CalibrationDate>
#       <Use2007Equation>1</Use2007Equation>
#       <CalibrationCoefficients equation="0" >
#         <!-- Coefficients for Owens-Millard equation. -->
#         <Boc>0.0000</Boc>
#         <Soc>0.0000e+000</Soc>
#         <offset>0.0000</offset>
#         <Pcor>0.00e+000</Pcor>
#         <Tcor>0.0000</Tcor>
#         <Tau>0.0</Tau>
#       </CalibrationCoefficients>
#       <CalibrationCoefficients equation="1" >
#         <!-- Coefficients for Sea-Bird equation - SBE calibration in 2007 and later. -->
#         <Soc>4.2007e-001</Soc>
#         <offset>-0.6109</offset>
#         <A>-4.3656e-003</A>
#         <B> 1.7017e-004</B>
#         <C>-2.5341e-006</C>
#         <D0> 2.5826e+000</D0>
#         <D1> 1.92634e-004</D1>
#         <D2>-4.64803e-002</D2>
#         <E> 3.6000e-002</E>
#         <Tau20> 1.1800</Tau20>
#         <H1>-3.3000e-002</H1>
#         <H2> 5.0000e+003</H2>
#         <H3> 1.4500e+003</H3>
#       </CalibrationCoefficients>
#     </OxygenSensor>
#   </sensor>
#   <sensor Channel="5" >
#     <!-- A/D voltage 1, PAR/Logarithmic, Satlantic -->
#     <PARLog_SatlanticSensor SensorID="76" >
#       <SerialNumber>1122</SerialNumber>
#       <CalibrationDate>08-May-2019</CalibrationDate>
#       <a0>9.7456e-001</a0>
#       <a1>8.1640e-001</a1>
#       <Im>1.3589e+000</Im>
#       <Multiplier>1.0000e+000</Multiplier>
#     </PARLog_SatlanticSensor>
#   </sensor>
#   <sensor Channel="6" >
#     <!-- A/D voltage 2, pH -->
#     <pH_Sensor SensorID="43" >
#       <SerialNumber>0363</SerialNumber>
#       <CalibrationDate>15-Apr-19</CalibrationDate>
#       <Slope>4.5952</Slope>
#       <Offset>2.5370</Offset>
#     </pH_Sensor>
#   </sensor>
#   <sensor Channel="7" >
#     <!-- A/D voltage 3, Oxidation Reduction Potential -->
#     <OxidationReductionPotentialSensor SensorID="41" >
#       <SerialNumber>0363</SerialNumber>
#       <CalibrationDate>15-Apr-19</CalibrationDate>
#       <B>2.499480</B>
#       <M>-0.496195</M>
#       <Offset>0.0</Offset>
#     </OxidationReductionPotentialSensor>
#   </sensor>
#   <sensor Channel="8" >
#     <!-- A/D voltage 4, Fluorometer, WET Labs ECO-AFL/FL -->
#     <FluoroWetlabECO_AFL_FL_Sensor SensorID="20" >
#       <SerialNumber>FLNTURT-2496</SerialNumber>
#       <CalibrationDate>08-May-2019</CalibrationDate>
#       <ScaleFactor>5.00000000e+001</ScaleFactor>
#       <!-- Dark output -->
#       <Vblank>0.0550</Vblank>
#     </FluoroWetlabECO_AFL_FL_Sensor>
#   </sensor>
#   <sensor Channel="9" >
#     <!-- A/D voltage 5, Turbidity Meter, WET Labs, ECO-NTU -->
#     <TurbidityMeter SensorID="67" >
#       <SerialNumber>FLNTURT-2496</SerialNumber>
#       <CalibrationDate>08-May-2019</CalibrationDate>
#       <ScaleFactor>189.000000</ScaleFactor>
#       <!-- Dark output -->
#       <DarkVoltage>0.071000</DarkVoltage>
#     </TurbidityMeter>
#   </sensor>
# </Sensors>
# datcnv_date = Sep 18 2019 09:14:16, 7.26.7.129 [datcnv_vars = 14]
# datcnv_in = C:\DATA\090219_fcr50.hex C:\DATA\SBE19plusV2_7809.xmlcon
# datcnv_skipover = 0
# datcnv_ox_hysteresis_correction = yes
# datcnv_ox_tau_correction = yes
# filter_date = Sep 18 2019 09:14:32, 7.26.7.129
# filter_in = C:\DATA\090219_fcr50.cnv
# filter_low_pass_tc_A = 0.030
# filter_low_pass_tc_B = 0.150
# filter_low_pass_A_vars = sbeox0ML/L prdM prdE tv290C
# filter_low_pass_B_vars = depFM dz/dtM sbeox0PS specc c0uS/cm flECO-AFL ph orp par/sat/log turbWETntu0
# alignctd_date = Sep 18 2019 09:15:31, 7.26.7.129
# alignctd_in = C:\DATA\090219_fcr50.cnv
# alignctd_adv = dz/dtM 1.000, sbeox0PS 1.000, specc 1.000, c0uS/cm 1.000, flECO-AFL 1.000, ph 1.000, orp 1.000, turbWETntu0 1.000                                                                                                   
# file_type = ascii
*END*
     -0.552 4.3139e-20     6.0093     97.791      1.637   1.531807    -0.1200      5.728 -1240.7455 8.8174e+02    -0.4723     -0.541     -0.785    21.7689 0.0000e+00
     -0.552 3.9217e-21     6.0078     97.790      1.577   1.475674    -0.1205      5.688 -1240.7455 8.5044e+02    -0.4319     -0.541     -0.785    21.7692 0.0000e+00
     -0.552 3.5652e-22     6.0070     97.786      1.605   1.501400    -0.1289      5.661 -1240.7455 8.5473e+02    -0.4381     -0.542     -0.786    21.7695 0.0000e+00
     -0.552 3.2411e-23     6.0079     97.791      1.766   1.652768    -0.1426      5.673 -1240.7455 7.1083e+02    -0.4163     -0.542     -0.785    21.7698 0.0000e+00
     -0.552 2.9500e-24     6.0103     97.797      1.840   1.721784    -0.1388      5.726 -1240.7455 4.4418e+02    -0.2989     -0.541     -0.785    21.7701 0.0000e+00
     -0.552 3.0757e-25     6.0092     97.810      1.820   1.702250    -0.1263      5.749 -1240.7455 4.3826e+02    -0.2313     -0.541     -0.785    21.7702 0.0000e+00
     -0.552 4.6125e-25     6.0084     97.825      1.921   1.796773    -0.1300      5.727 -1240.7455 5.4484e+02    -0.2548     -0.542     -0.786    21.7701 0.0000e+00
     -0.552 4.8081e-24     6.0095     97.830      2.114   1.977557    -0.1312      5.703 -1240.7455 4.1444e+02    -0.2556     -0.541     -0.785    21.7703 0.0000e+00
     -0.552 5.2865e-23     6.0091     97.833      2.192   2.050558    -0.1148      5.690 -1240.7455 2.7820e+02    -0.2408     -0.541     -0.784    21.7707 0.0000e+00
     -0.552 5.8151e-22     6.0103     97.843      2.119   1.982429    -0.1052      5.695 -1240.7455 2.6679e+02    -0.2719     -0.541     -0.784    21.7711 0.0000e+00
     -0.552 6.3966e-21     6.0115     97.838      1.978   1.850813    -0.1192      5.726 -1240.7455 2.6465e+02    -0.3042     -0.541     -0.785    21.7714 0.0000e+00
     -0.552 7.0363e-20     6.0117     97.828      1.913   1.789832    -0.1285      5.763 -1240.7455 2.6207e+02    -0.3358     -0.541     -0.785    21.7719 0.0000e+00
     -0.552 7.7399e-19     6.0108     97.831      1.940   1.815382    -0.1216      5.785 -1240.7455 2.7372e+02    -0.3927     -0.542     -0.786    21.7721 0.0000e+00
     -0.552 8.5139e-18     6.0131     97.821      1.970   1.842917    -0.1236      5.805 -1240.7455 3.7416e+02    -0.4350     -0.542     -0.785    21.7723 0.0000e+00
     -0.552 9.3653e-17     6.0122     97.812      1.998   1.869312    -0.1259      5.848 -1240.7455 5.9779e+02    -0.4870     -0.541     -0.785    21.7729 0.0000e+00
     -0.552 1.0302e-15     6.0099     97.826      2.011   1.881070    -0.1234      5.913 -1240.7455 6.6763e+02    -0.5294     -0.541     -0.785    21.7735 0.0000e+00
     -0.552 1.1332e-14     6.0125     97.839      1.986   1.858354    -0.1282      5.990 -1240.7455 6.4752e+02    -0.5204     -0.542     -0.785    21.7737 0.0000e+00
     -0.552 1.2465e-13     6.0106     97.844      1.975   1.848101    -0.1322      6.067 -1240.7455 8.7169e+02    -0.5101     -0.542     -0.785    21.7738 0.0000e+00
     -0.552 1.3712e-12     6.0089     97.850      2.013   1.883836    -0.1285      6.131 -1240.7455 1.0463e+03    -0.5027     -0.542     -0.785    21.7743 0.0000e+00
     -0.552 1.5083e-11     6.0113     97.845      2.041   1.910240    -0.1177      6.176 -1240.7455 1.0016e+03    -0.4972     -0.542     -0.785    21.7746 0.0000e+00
     -0.552 1.6591e-10     6.0120     97.840      2.045   1.913902    -0.1145      6.206 -1240.7455 7.9020e+02    -0.5090     -0.541     -0.784    21.7748 0.0000e+00
     -0.552 1.8250e-09     6.0113     97.849      2.060   1.928112    -0.1250      6.225 -1240.7455 4.4697e+02    -0.5144     -0.541     -0.785    21.7754 0.0000e+00
     -0.552 2.0075e-08     6.0130     97.849      2.090   1.955317    -0.1227      6.234 -1240.7451 2.4476e+02    -0.4966     -0.541     -0.784    21.7758 0.0000e+00
     -0.552 2.2083e-07     6.0120     97.849      2.126   1.989384    -0.1130      6.242 -1240.7416 1.9821e+02    -0.4905     -0.541     -0.784    21.7767 0.0000e+00
     -0.552 5.6637e-07     6.0106     97.855      2.162   2.023189    -0.1119      6.259 -1240.7021 1.6603e+02    -0.5066     -0.541     -0.784    21.7769 0.0000e+00
     -0.552      0.000     6.0129     97.850      2.188   2.047235    -0.1093      6.272 -1240.2681 1.4425e+02    -0.4949     -0.541     -0.785    21.7777 0.0000e+00
     -0.552      0.000     6.0119     97.849      2.233   2.090035    -0.1165      6.252 -1235.4940 1.4356e+02    -0.4796     -0.542     -0.785    21.7771 0.0000e+00
     -0.552      0.001     6.0113     97.866      2.646   2.477320    -0.1375      5.983 -1182.9788 1.5782e+02    -0.4203     -0.541     -0.785    21.7787 0.0000e+00
     -0.552      0.006     6.0132     97.882      6.907   6.476402    -0.2851      5.407  -605.3116 1.9382e+02     0.5180     -0.541     -0.783    21.7762 0.0000e+00
     -0.552      0.021     6.0116     97.877     16.132  15.198938    -0.5572      5.177   260.7583 4.1242e+02     2.2785     -0.542     -0.785    21.7805 0.0000e+00
     -0.551      0.048     6.0118     97.866     26.910  25.592989    -0.6964      5.757   432.2340 7.8314e+02     3.3323     -0.540     -0.782    21.7741 0.0000e+00
     -0.549      0.082     6.0121     97.869     36.105  34.669571    -0.6164      6.700   245.2825 9.8451e+02     4.4113     -0.542     -0.785    21.7855 0.0000e+00
     -0.532      0.116     6.0160     97.877     39.818  38.524305     0.4199      7.391   217.4030 9.7000e+02    15.2903     -0.537     -0.778    21.7678 0.0000e+00
     -0.486      0.148     6.0055     97.886     39.415  38.380183     2.3215      7.666   208.8887 9.3804e+02    35.2100     -0.483     -0.700    21.8499 0.0000e+00
     -0.426      0.175     5.9452     97.914     38.765  37.942197     3.3458      7.718   203.4251 9.9337e+02    45.9712     -0.412     -0.599    22.3591 0.0000e+00
     -0.371      0.194     5.8750     97.978     38.275  37.608887     3.3802      7.718   200.1276 1.0505e+03    46.0372     -0.362     -0.525    22.9877 0.0000e+00
     -0.322      0.200     5.8296     98.117     38.028  37.460697     2.7811      7.701   198.7884 1.0722e+03    36.3353     -0.316     -0.458    23.4042 0.0000e+00
     -0.272      0.193     5.7966     98.368     38.065  37.547032     1.6506      7.675   195.7509 1.0975e+03    18.3970     -0.267     -0.387    23.7041 0.0000e+00
     -0.223      0.178     5.7708     98.708     38.200  37.700706     1.0259      7.638   191.7945 1.1151e+03     8.6076     -0.219     -0.317    23.9554 0.0000e+00
     -0.173      0.157     5.7532     99.122     38.230  37.731895     0.9751      7.581   188.2065 1.1281e+03     7.7028     -0.170     -0.247    24.1492 0.0000e+00
     -0.128      0.127     5.7467     99.568     38.180  37.670239     0.9850      7.501   186.6134 1.1388e+03     7.4902     -0.122     -0.178    24.2697 0.0000e+00
     -0.094      0.091     5.7566     99.920     38.122  37.589965     1.0071      7.424   186.8144 1.1410e+03     7.3151     -0.088     -0.126    24.3275 0.0000e+00
     -0.074      0.051     5.7751    100.140     38.077  37.522970     1.0251      7.373   186.6778 1.1327e+03     7.2568     -0.068     -0.097    24.3455 0.0000e+00
     -0.070      0.016     5.7975    100.251     38.061  37.494931     1.0293      7.348   186.2524 1.1114e+03     7.2444     -0.065     -0.093    24.3525 0.0000e+00
     -0.080     -0.009     5.8313    100.232     38.073  37.504831     1.0237      7.341   185.8875 9.4270e+02     7.2310     -0.076     -0.110    24.3308 0.0000e+00
     -0.098     -0.023     5.8559    100.114     38.079  37.515728     1.0181      7.342   186.3096 7.7337e+02     7.3235     -0.097     -0.140    24.2941 0.0000e+00
     -0.113     -0.027     5.8700     99.950     38.053  37.499739     1.0217      7.345   187.9148 7.4487e+02     7.5435     -0.114     -0.165    24.2623 0.0000e+00
     -0.119     -0.022     5.8810     99.751     37.981  37.438465     1.0243      7.346   189.2919 7.4273e+02     7.6962     -0.118     -0.172    24.2449 0.0000e+00
     -0.119     -0.013     5.8782     99.545     37.883  37.346165     1.0238      7.346   188.1617 9.1250e+02     7.6942     -0.116     -0.169    24.2462 0.0000e+00
     -0.118     -0.005     5.8690     99.374     37.808  37.272410     1.0235      7.346   185.1766 1.0883e+03     7.6504     -0.115     -0.167    24.2516 0.0000e+00
     -0.116      0.000     5.8585     99.268     37.781  37.244914     1.0209      7.349   183.7431 1.1063e+03     7.6582     -0.114     -0.165    24.2674 0.0000e+00
     -0.116      0.002     5.8442     99.322     37.802  37.267613     1.0269      7.354   184.1660 1.1094e+03     7.6902     -0.114     -0.165    24.2830 0.0000e+00
     -0.116      0.001     5.8307     99.673     37.820  37.292964     1.0357      7.361   184.7840 1.1113e+03     7.6763     -0.114     -0.166    24.2878 0.0000e+00
     -0.116      0.001     5.8201    100.013     37.814  37.297547     1.0407      7.368   185.0195 1.1150e+03     7.5883     -0.114     -0.165    24.2873 0.0000e+00
     -0.116      0.000     5.8142     99.575     37.830  37.323039     1.0612      7.373   184.6902 1.1201e+03     7.4784     -0.114     -0.165    24.2819 0.0000e+00
     -0.116 1.8773e-08     5.8102     98.033     37.847  37.347303     1.0923      7.376   184.0722 1.1231e+03     7.4299     -0.113     -0.164    24.2835 0.0000e+00
     -0.116 2.0650e-07     5.8333     95.673     37.831  37.337031     1.1049      7.377   183.9138 1.1237e+03     7.4279     -0.114     -0.165    24.2961 0.0000e+00
     -0.116 2.0650e-07     5.8762     92.824     37.816  37.325793     1.0925      7.374   184.3245 1.1209e+03     7.4214     -0.114     -0.165    24.3118 0.0000e+00
     -0.116 1.8773e-08     5.8558     89.729     37.825  37.338380     1.0808      7.367   184.9070 1.1163e+03     7.4169     -0.114     -0.165    24.3249 0.0000e+00
     -0.116 1.7066e-09     5.7528     86.624     37.846  37.362282     1.0766      7.357   185.5375 1.1125e+03     7.4391     -0.114     -0.165    24.3343 0.0000e+00
     -0.116 1.5515e-10     5.6086     83.788     37.842  37.360899     1.0761      7.345   186.0108 1.1079e+03     7.4608     -0.114     -0.165    24.3413 0.0000e+00
     -0.116 1.4104e-11     5.4369     81.553     37.800  37.321662     1.0746      7.335   186.1544 1.0937e+03     7.4824     -0.113     -0.164    24.3464 0.0000e+00
     -0.116 1.2822e-12     5.2502     80.095     37.744  37.268718     1.0666      7.331   186.0691 9.9970e+02     7.5368     -0.114     -0.165    24.3509 0.0000e+00
     -0.116 1.1657e-13     5.0639     79.400     37.704  37.228552     1.0746      7.334   185.9257 7.5487e+02     7.5940     -0.114     -0.165    24.3546 0.0000e+00
     -0.116 1.0597e-14     4.8883     79.387     37.695  37.216868     1.0931      7.339   185.8838 6.1596e+02     7.6164     -0.113     -0.164    24.3582 0.0000e+00
     -0.116 9.6335e-16     4.7540     79.878     37.737  37.254389     1.0914      7.341   185.5629 8.0195e+02     7.6106     -0.113     -0.164    24.3617 0.0000e+00
     -0.115 8.7575e-17     4.6703     80.617     37.787  37.301362     1.0624      7.338   184.8850 1.0220e+03     7.5238     -0.113     -0.164    24.3651 0.0000e+00
     -0.115 7.9615e-18     4.6300     81.363     37.761  37.277018     1.0294      7.328   184.5715 1.0870e+03     7.3529     -0.113     -0.164    24.3662 0.0000e+00
