* Sea-Bird SBE19plus  Data File:
* FileName = C:\DATA\090318_FCR50_0006.hex
* Software version 2.6.3.104 SB_Terminal.dll
* Temperature SN = 7809
* Conductivity SN = 7809
* System UpLoad Time = Sep 03 2018 15:41:09
* <ApplicationData>
* <Seaterm232>
* <SoftwareVersion>2.6.3.104</SoftwareVersion>
* <BuildDate>30-Jun-2017</BuildDate>
* </Seaterm232>
* </ApplicationData>
* cast   6 03 Sep 2018 17:21:31 samples 6566 to 7411, avg = 1, stop = mag switch
# nquan = 15
# nvalues = 740                         
# units = specified
# name 0 = depFM: Depth [fresh water, m]
# name 1 = dz/dtM: Descent Rate [m/s]
# name 2 = sbeox0Mg/L: Oxygen, SBE 43 [mg/l]
# name 3 = sbeox0PS: Oxygen, SBE 43 [% saturation]
# name 4 = specc: Specific Conductance [uS/cm]
# name 5 = c0uS/cm: Conductivity [uS/cm]
# name 6 = flECO-AFL: Fluorescence, WET Labs ECO-AFL/FL [mg/m^3]
# name 7 = ph: pH
# name 8 = orp: Oxidation Reduction Potential [mV]
# name 9 = par/sat/log: PAR/Logarithmic, Satlantic
# name 10 = turbWETntu0: Turbidity, WET Labs ECO [NTU]
# name 11 = prdM: Pressure, Strain Gauge [db]
# name 12 = prdE: Pressure, Strain Gauge [psi]
# name 13 = tv290C: Temperature [ITS-90, deg C]
# name 14 = flag:  0.000e+00
# span 0 =     -0.464,      9.710       
# span 1 =     -0.072,      0.195       
# span 2 =     0.0648,     9.9880       
# span 3 =      0.602,    120.681       
# span 4 =      0.636,    167.003       
# span 5 =   0.683200, 123.436685       
# span 6 =    -0.2216,    16.9619       
# span 7 =      6.400,      8.896       
# span 8 = -1240.7455,   263.6454       
# span 9 = 1.2534e-01, 2.4660e+03       
# span 10 =    -0.4703,    39.4331      
# span 11 =     -0.455,      9.523      
# span 12 =     -0.659,     13.812      
# span 13 =    11.9316,    28.6840      
# span 14 = 0.0000e+00, 0.0000e+00      
# interval = seconds: 0.25
# start_time = Sep 03 2018 17:21:31 [Instrument's time stamp, header]
# bad_flag = -9.990e-29
# <Sensors count="9" >
#   <sensor Channel="1" >
#     <!-- Count, Temperature -->
#     <TemperatureSensor SensorID="58" >
#       <SerialNumber>7809</SerialNumber>
#       <CalibrationDate>09-Mar-18</CalibrationDate>
#       <A0>1.21093245e-003</A0>
#       <A1>2.84356597e-004</A1>
#       <A2>-1.94507398e-006</A2>
#       <A3>2.12806664e-007</A3>
#       <Slope>1.00000000</Slope>
#       <Offset>0.0000</Offset>
#     </TemperatureSensor>
#   </sensor>
#   <sensor Channel="2" >
#     <!-- Frequency 0, Conductivity -->
#     <ConductivitySensor SensorID="3" >
#       <SerialNumber>7809</SerialNumber>
#       <CalibrationDate>09-Mar-18</CalibrationDate>
#       <UseG_J>1</UseG_J>
#       <!-- Cell const and series R are applicable only for wide range sensors. -->
#       <SeriesR>0.0000</SeriesR>
#       <CellConst>2000.0000</CellConst>
#       <ConductivityType>0</ConductivityType>
#       <Coefficients equation="0" >
#         <A>0.00000000e+000</A>
#         <B>0.00000000e+000</B>
#         <C>0.00000000e+000</C>
#         <D>0.00000000e+000</D>
#         <M>0.0</M>
#         <CPcor>-9.57000000e-008</CPcor>
#       </Coefficients>
#       <Coefficients equation="1" >
#         <G>-1.00672082e+000</G>
#         <H>1.26906489e-001</H>
#         <I>-1.40584351e-004</I>
#         <J>2.47837121e-005</J>
#         <CPcor>-9.57000000e-008</CPcor>
#         <CTcor>3.2500e-006</CTcor>
#         <!-- WBOTC not applicable unless ConductivityType = 1. -->
#         <WBOTC>0.00000000e+000</WBOTC>
#       </Coefficients>
#       <Slope>1.00000000</Slope>
#       <Offset>0.00000</Offset>
#     </ConductivitySensor>
#   </sensor>
#   <sensor Channel="3" >
#     <!-- Count, Pressure, Strain Gauge -->
#     <PressureSensor SensorID="46" >
#       <SerialNumber>7809</SerialNumber>
#       <CalibrationDate>07-Mar-18</CalibrationDate>
#       <PA0>-4.08176359e-002</PA0>
#       <PA1>4.85188419e-004</PA1>
#       <PA2>-3.51168169e-012</PA2>
#       <PTEMPA0>-5.37806900e+001</PTEMPA0>
#       <PTEMPA1>5.36620721e+001</PTEMPA1>
#       <PTEMPA2>4.87214332e-002</PTEMPA2>
#       <PTCA0>5.25213435e+005</PTCA0>
#       <PTCA1>1.79532409e+000</PTCA1>
#       <PTCA2>-2.84353509e-001</PTCA2>
#       <PTCB0>2.51668750e+001</PTCB0>
#       <PTCB1>3.75000000e-004</PTCB1>
#       <PTCB2>0.00000000e+000</PTCB2>
#       <Offset>0.000000</Offset>
#     </PressureSensor>
#   </sensor>
#   <sensor Channel="4" >
#     <!-- A/D voltage 0, pH -->
#     <pH_Sensor SensorID="43" >
#       <SerialNumber>0363</SerialNumber>
#       <CalibrationDate>16-Mar-18</CalibrationDate>
#       <Slope>4.6194</Slope>
#       <Offset>2.5947</Offset>
#     </pH_Sensor>
#   </sensor>
#   <sensor Channel="5" >
#     <!-- A/D voltage 1, Oxidation Reduction Potential -->
#     <OxidationReductionPotentialSensor SensorID="41" >
#       <SerialNumber>0363</SerialNumber>
#       <CalibrationDate>16-Mar-18</CalibrationDate>
#       <B>2.499480</B>
#       <M>-0.496195</M>
#       <Offset>0.0</Offset>
#     </OxidationReductionPotentialSensor>
#   </sensor>
#   <sensor Channel="6" >
#     <!-- A/D voltage 2, Oxygen, SBE 43 -->
#     <OxygenSensor SensorID="38" >
#       <SerialNumber>0434</SerialNumber>
#       <CalibrationDate>13-Mar-18</CalibrationDate>
#       <Use2007Equation>1</Use2007Equation>
#       <CalibrationCoefficients equation="0" >
#         <!-- Coefficients for Owens-Millard equation. -->
#         <Boc>0.0000</Boc>
#         <Soc>0.0000e+000</Soc>
#         <offset>0.0000</offset>
#         <Pcor>0.00e+000</Pcor>
#         <Tcor>0.0000</Tcor>
#         <Tau>0.0</Tau>
#       </CalibrationCoefficients>
#       <CalibrationCoefficients equation="1" >
#         <!-- Coefficients for Sea-Bird equation - SBE calibration in 2007 and later. -->
#         <Soc>4.5718e-001</Soc>
#         <offset>-0.6113</offset>
#         <A>-4.0649e-003</A>
#         <B> 2.0945e-004</B>
#         <C>-3.3182e-006</C>
#         <D0> 2.5826e+000</D0>
#         <D1> 1.92634e-004</D1>
#         <D2>-4.64803e-002</D2>
#         <E> 3.6000e-002</E>
#         <Tau20> 1.2200</Tau20>
#         <H1>-3.3000e-002</H1>
#         <H2> 5.0000e+003</H2>
#         <H3> 1.4500e+003</H3>
#       </CalibrationCoefficients>
#     </OxygenSensor>
#   </sensor>
#   <sensor Channel="7" >
#     <!-- A/D voltage 3, PAR/Logarithmic, Satlantic -->
#     <PARLog_SatlanticSensor SensorID="76" >
#       <SerialNumber>1122</SerialNumber>
#       <CalibrationDate>22-Jun-2017</CalibrationDate>
#       <a0>9.6090e-001</a0>
#       <a1>8.0780e-001</a1>
#       <Im>1.3589e+000</Im>
#       <Multiplier>1.0000e+000</Multiplier>
#     </PARLog_SatlanticSensor>
#   </sensor>
#   <sensor Channel="8" >
#     <!-- A/D voltage 4, Fluorometer, WET Labs ECO-AFL/FL -->
#     <FluoroWetlabECO_AFL_FL_Sensor SensorID="20" >
#       <SerialNumber>FLNTURT-2496</SerialNumber>
#       <CalibrationDate>25-Jan-2017</CalibrationDate>
#       <ScaleFactor>5.30000000e+001</ScaleFactor>
#       <!-- Dark output -->
#       <Vblank>0.0560</Vblank>
#     </FluoroWetlabECO_AFL_FL_Sensor>
#   </sensor>
#   <sensor Channel="9" >
#     <!-- A/D voltage 5, Turbidity Meter, WET Labs, ECO-NTU -->
#     <TurbidityMeter SensorID="67" >
#       <SerialNumber>FLNTURT-2496</SerialNumber>
#       <CalibrationDate>25-Jan-2017</CalibrationDate>
#       <ScaleFactor>176.000000</ScaleFactor>
#       <!-- Dark output -->
#       <DarkVoltage>0.072000</DarkVoltage>
#     </TurbidityMeter>
#   </sensor>
# </Sensors>
# datcnv_date = Sep 03 2018 15:49:01, 7.26.7.114 [datcnv_vars = 14]
# datcnv_in = C:\DATA\090318_fcr50_b.hex C:\DATA\SBE19plusV2_7809.xmlcon
# datcnv_skipover = 0
# datcnv_ox_hysteresis_correction = yes
# datcnv_ox_tau_correction = yes
# filter_date = Sep 03 2018 15:49:52, 7.26.7.114
# filter_in = C:\DATA\090318_fcr50_b.cnv
# filter_low_pass_tc_A = 0.030
# filter_low_pass_tc_B = 0.150
# filter_low_pass_A_vars = prdM prdE tv290C
# filter_low_pass_B_vars = depFM dz/dtM sbeox0Mg/L sbeox0PS specc c0uS/cm flECO-AFL ph orp par/sat/log turbWETntu0
# alignctd_date = Sep 03 2018 15:50:16, 7.26.7.114
# alignctd_in = C:\DATA\090318_fcr50_b.cnv
# alignctd_adv = dz/dtM 1.000, sbeox0Mg/L 1.000, sbeox0PS 1.000, specc 1.000, c0uS/cm 1.000, flECO-AFL 1.000, ph 1.000, orp 1.000, turbWETntu0 1.000                                                                                 
# file_type = ascii
*END*
     -0.464 4.0978e-07     7.7110     99.690      0.655   0.703443    -0.1376      7.207 -1240.7455 2.3492e+03    -0.3932     -0.455     -0.659    28.6840 0.0000e+00
     -0.463      0.000     7.7121     99.686      0.636   0.683200    -0.1457      7.215 -1240.7455 2.3430e+03    -0.4406     -0.454     -0.659    28.6837 0.0000e+00
     -0.463      0.000     7.7128     99.686      0.671   0.720226    -0.1462      7.225 -1240.7455 2.3563e+03    -0.4703     -0.454     -0.659    28.6837 0.0000e+00
     -0.463      0.001     7.7128     99.688      0.718   0.770654    -0.1520      7.234 -1240.7455 2.3951e+03    -0.4170     -0.454     -0.659    28.6828 0.0000e+00
     -0.463      0.001     7.7114     99.673      0.732   0.785634    -0.1613      7.238 -1240.7455 2.4522e+03    -0.2846     -0.454     -0.659    28.6730 0.0000e+00
     -0.463      0.001     7.7107     99.666      0.722   0.774527    -0.1572      7.242 -1240.7455 2.4660e+03    -0.1816     -0.454     -0.658    28.6585 0.0000e+00
     -0.463      0.001     7.7127     99.695      0.711   0.763172    -0.1485      7.247 -1240.7455 2.4102e+03    -0.1481     -0.454     -0.658    28.6545 0.0000e+00
     -0.462      0.000     7.7167     99.747      0.723   0.775172    -0.1578      7.248 -1240.7455 2.3524e+03    -0.1542     -0.453     -0.657    28.6571 0.0000e+00
     -0.462 2.6140e-07     7.7215     99.808      0.739   0.792800    -0.1678      7.245 -1240.7453 2.2736e+03    -0.1938     -0.453     -0.657    28.6596 0.0000e+00
     -0.462      0.000     7.7237     99.837      0.733   0.786079    -0.1602      7.241 -1240.7431 1.7108e+03    -0.2306     -0.453     -0.657    28.6613 0.0000e+00
     -0.463      0.000     7.7198     99.788      0.706   0.757316    -0.1573      7.241 -1240.7195 7.3576e+02    -0.2334     -0.454     -0.658    28.6620 0.0000e+00
     -0.463      0.000     7.7151     99.727      0.710   0.762082    -0.1608      7.253 -1240.4590 2.2073e+02    -0.2574     -0.454     -0.658    28.6616 0.0000e+00
     -0.463      0.004     7.7144     99.704      0.964   1.033940    -0.1652      7.367 -1237.5941 1.7775e+02    -0.3380     -0.454     -0.657    28.6628 0.0000e+00
     -0.463      0.014     7.7241     99.747      3.484   3.727273    -0.1740      7.716 -1206.0806 1.8056e+02    -0.3840     -0.453     -0.658    28.6626 0.0000e+00
     -0.463      0.035     7.7478     99.856     13.393  14.299829    -0.1755      8.206  -859.4314 1.8626e+02    -0.3557     -0.454     -0.657    28.6641 0.0000e+00
     -0.461      0.066     7.7688     99.872     27.660  29.488789    -0.1827      8.581  -215.0279 1.8539e+02    -0.1185     -0.453     -0.658    28.6617 0.0000e+00
     -0.449      0.102     7.7835     99.825     35.425  37.700754    -0.2063      8.774   147.9757 1.8337e+02     0.3478     -0.448     -0.651    28.6661 0.0000e+00
     -0.419      0.137     7.8085     99.896     36.551  38.800970    -0.2216      8.863   175.0293 1.8574e+02     0.7048     -0.417     -0.606    28.6430 0.0000e+00
     -0.368      0.166     7.8436     99.999     36.553  38.662077    -0.1841      8.896   155.3522 1.9018e+02     1.6042     -0.366     -0.531    28.5062 0.0000e+00
     -0.306      0.186     7.8802    100.037     36.627  38.562438     0.2744      8.882   148.4771 1.9408e+02    11.2525     -0.299     -0.434    28.3365 0.0000e+00
     -0.247      0.195     7.9179    100.123     36.767  38.548922     1.1049      8.836   157.7226 1.9670e+02    28.9506     -0.236     -0.343    28.2125 0.0000e+00
     -0.198      0.190     7.9584    100.357     36.889  38.561922     1.5490      8.787   166.2147 1.9895e+02    38.6162     -0.195     -0.282    28.0956 0.0000e+00
     -0.153      0.175     7.9988    100.686     36.989  38.592391     1.5822      8.745   168.3843 2.0112e+02    39.4331     -0.151     -0.219    27.9040 0.0000e+00
     -0.109      0.160     8.0364    101.050     37.038  38.599548     1.5889      8.699   166.7474 2.0324e+02    38.6451     -0.104     -0.151    27.6229 0.0000e+00
     -0.069      0.150     8.0703    101.415     37.048  38.584862     1.6573      8.649   166.1260 2.0531e+02    29.1791     -0.064     -0.093    27.3885 0.0000e+00
     -0.039      0.146     8.0983    101.723     37.085  38.605376     1.7745      8.599   168.0127 2.0711e+02    11.8047     -0.036     -0.053    27.2438 0.0000e+00
     -0.011      0.144     8.1129    101.858     37.154  38.656960     1.8305      8.552   170.7158 2.0938e+02     2.3121     -0.014     -0.020    27.1480 0.0000e+00
      0.025      0.140     8.1040    101.693     37.217  38.700284     1.8378      8.512   172.4810 2.1071e+02     1.4422      0.022      0.031    27.0905 0.0000e+00
      0.068      0.132     8.0793    101.348     37.276  38.747993     1.8631      8.482   173.9549 1.9409e+02     1.3485      0.067      0.096    27.0647 0.0000e+00
      0.113      0.118     8.0584    101.111     37.306  38.789068     1.8972      8.460   176.0614 1.5974e+02     1.3007      0.112      0.163    27.0450 0.0000e+00
      0.149      0.097     8.0443    101.001     37.244  38.752213     1.9107      8.441   178.0750 1.3951e+02     1.2617      0.152      0.220    27.0173 0.0000e+00
      0.169      0.072     8.0186    100.716     37.102  38.620077     1.8973      8.425   179.6305 1.3940e+02     1.2428      0.171      0.249    26.9872 0.0000e+00
      0.177      0.046     7.9760    100.151     36.962  38.462060     1.9004      8.411   180.6729 1.4385e+02     1.2557      0.175      0.254    26.9524 0.0000e+00
      0.178      0.026     7.9331     99.531     36.902  38.366365     1.9389      8.398   181.8162 1.4500e+02     1.2953      0.175      0.253    26.9680 0.0000e+00
      0.178      0.013     7.8914     98.906     36.930  38.352395     1.9674      8.385   183.7317 1.4320e+02     1.3247      0.175      0.254    27.0295 0.0000e+00
      0.178      0.008     7.8322     98.071     36.972  38.356615     1.9703      8.372   185.6788 1.4234e+02     1.3057      0.174      0.253    27.0534 0.0000e+00
      0.179      0.007     7.7434     96.889     36.998  38.353798     2.0008      8.360   187.2901 1.4227e+02     1.2800      0.174      0.252    27.0327 0.0000e+00
      0.183      0.007     7.6299     95.424     37.044  38.381819     2.0693      8.350   188.9314 1.4168e+02     1.2887      0.179      0.259    26.9825 0.0000e+00
      0.187      0.007     7.5086     93.884     37.110  38.441259     2.1097      8.340   190.5533 1.4019e+02     1.2888      0.184      0.268    26.9165 0.0000e+00
      0.189      0.007     7.3968     92.485     37.168  38.500703     2.1123      8.328   191.7570 1.3853e+02     1.2810      0.186      0.270    26.8617 0.0000e+00
      0.189      0.007     7.3015     91.305     37.190  38.528769     2.0918      8.315   192.6435 1.3820e+02     1.2859      0.186      0.269    26.8217 0.0000e+00
      0.190      0.007     7.2145     90.232     37.181  38.526501     2.0543      8.303   193.7872 1.3883e+02     1.2864      0.186      0.270    26.7957 0.0000e+00
      0.191      0.008     7.1276     89.156     37.186  38.536818     2.0357      8.291   195.0025 1.3831e+02     1.2874      0.187      0.270    26.7815 0.0000e+00
      0.193      0.009     7.0485     88.172     37.236  38.589991     2.0329      8.277   195.6366 1.3618e+02     1.2979      0.188      0.273    26.7826 0.0000e+00
      0.196      0.009     6.9855     87.386     37.304  38.661166     2.0291      8.263   195.3456 1.3431e+02     1.2919      0.192      0.278    26.7936 0.0000e+00
      0.200      0.009     6.9335     86.746     37.335  38.698555     2.0274      8.250   194.8385 1.3491e+02     1.2745      0.196      0.285    26.8022 0.0000e+00
      0.203      0.008     6.8849     86.160     37.349  38.724414     2.0303      8.239   194.9260 1.3656e+02     1.2711      0.199      0.290    26.8119 0.0000e+00
      0.205      0.006     6.8358     85.576     37.391  38.783241     2.0359      8.230   195.5431 1.3668e+02     1.2822      0.201      0.292    26.8134 0.0000e+00
      0.205      0.004     6.7919     85.058     37.429  38.838078     2.0317      8.222   196.4501 1.3563e+02     1.2864      0.201      0.291    26.8106 0.0000e+00
      0.205      0.002     6.7641     84.746     37.452  38.879220     2.0352      8.214   197.2878 1.3585e+02     1.2911      0.201      0.291    26.8170 0.0000e+00
      0.205      0.001     6.7633     84.781     37.512  38.963051     2.0587      8.205   198.0142 1.3730e+02     1.3088      0.201      0.291    26.8335 0.0000e+00
      0.205      0.001     6.8014     85.313     37.607  39.089322     2.0858      8.199   198.8666 1.3788e+02     1.3172      0.201      0.292    26.8546 0.0000e+00
      0.205      0.001     6.8839     86.402     37.687  39.198883     2.1056      8.194   199.6771 1.3775e+02     1.3312      0.201      0.291    26.8753 0.0000e+00
      0.205      0.001     7.0034     87.951     37.735  39.271274     2.1056      8.189   200.3288 1.3767e+02     1.3566      0.201      0.292    26.8967 0.0000e+00
      0.206      0.001     7.1391     89.696     37.771  39.329304     2.0949      8.185   200.9815 1.3770e+02     1.3491      0.202      0.292    26.9261 0.0000e+00
      0.206      0.001     7.2685     91.361     37.814  39.392286     2.0862      8.180   201.8048 1.3747e+02     1.3318      0.202      0.293    26.9651 0.0000e+00
      0.206      0.001     7.3780     92.785     37.860  39.461025     2.0925      8.175   202.7121 1.3684e+02     1.3310      0.202      0.293    27.0012 0.0000e+00
      0.207      0.001     7.4610     93.888     37.896  39.525111     2.0878      8.170   203.3481 1.3610e+02     1.3085      0.203      0.294    27.0311 0.0000e+00
      0.207      0.001     7.5188     94.680     37.935  39.595381     2.0485      8.168   203.8154 1.3591e+02     1.2737      0.203      0.295    27.0568 0.0000e+00
      0.207      0.001     7.5573     95.214     37.990  39.675371     2.0314      8.165   204.5760 1.3676e+02     1.2763      0.203      0.294    27.0792 0.0000e+00
      0.207      0.000     7.5748     95.467     38.028  39.729897     2.0374      8.161   206.2641 1.3734e+02     1.3101      0.203      0.295    27.1043 0.0000e+00
      0.208 4.2828e-07     7.5663     95.379     38.036  39.746395     2.0379      8.160   208.2227 1.3673e+02     1.3160      0.204      0.294    27.1415 0.0000e+00
      0.208      0.000     7.5359     95.008     38.032  39.747791     2.0375      8.160   208.4685 1.3650e+02     1.3166      0.204      0.295    27.1854 0.0000e+00
      0.208      0.000     7.4911     94.453     38.027  39.746792     2.0327      8.159   207.2570 1.3678e+02     1.3175      0.203      0.294    27.2161 0.0000e+00
      0.208      0.001     7.4375     93.784     38.012  39.734317     2.0254      8.157   206.4803 1.3705e+02     1.2966      0.204      0.295    27.2324 0.0000e+00
      0.208      0.001     7.3813     93.084     37.998  39.724026     2.0046      8.155   206.7351 1.3757e+02     1.3085      0.203      0.295    27.2423 0.0000e+00
      0.208      0.001     7.3299     92.447     38.018  39.749439     1.9829      8.154   207.4124 1.3756e+02     1.3391      0.204      0.296    27.2490 0.0000e+00
      0.208      0.001     7.2941     92.006     38.050  39.787454     1.9753      8.153   208.0435 1.3731e+02     1.3305      0.204      0.296    27.2543 0.0000e+00
