* Sea-Bird SBE19plus  Data File:
* FileName = C:\DATA\090419_bvr50_0002.hex
* Software version 2.8.0.119 SB_Terminal.dll
* Temperature SN = 7809
* Conductivity SN = 7809
* System UpLoad Time = Sep 04 2019 11:44:29
* <ApplicationData>
* <Seaterm232>
* <SoftwareVersion>2.8.0.119</SoftwareVersion>
* <BuildDate>07-Nov-2018</BuildDate>
* </Seaterm232>
* </ApplicationData>
* cast   2 04 Sep 2019 11:33:00 samples 627 to 1630, avg = 1, stop = mag switch
# nquan = 16
# nvalues = 835                         
# units = specified
# name 0 = depFM: Depth [fresh water, m]
# name 1 = dz/dtM: Descent Rate [m/s]
# name 2 = sbeox0Mg/L: Oxygen, SBE 43 [mg/l]
# name 3 = sbeox0PS: Oxygen, SBE 43 [% saturation]
# name 4 = specc: Specific Conductance [uS/cm]
# name 5 = c0uS/cm: Conductivity [uS/cm]
# name 6 = flECO-AFL: Fluorescence, WET Labs ECO-AFL/FL [mg/m^3]
# name 7 = ph: pH
# name 8 = orp: Oxidation Reduction Potential [mV]
# name 9 = par/sat/log: PAR/Logarithmic, Satlantic
# name 10 = turbWETntu0: Turbidity, WET Labs ECO [NTU]
# name 11 = prdM: Pressure, Strain Gauge [db]
# name 12 = prdE: Pressure, Strain Gauge [psi]
# name 13 = tv290C: Temperature [ITS-90, deg C]
# name 14 = density00: Density [density, kg/m^3]
# name 15 = flag:  0.000e+00
# span 0 =     -0.661,     10.262       
# span 1 =     -0.062,      0.322       
# span 2 =     0.0663,     8.5934       
# span 3 =      0.589,     95.277       
# span 4 =      1.926,    190.244       
# span 5 =   1.994179, 129.864874       
# span 6 =    -2.2829,    22.7942       
# span 7 =      6.064,      8.416       
# span 8 =   -57.8115,   940.7404       
# span 9 = 1.2349e-01, 1.9854e+03       
# span 10 =    -0.8905,    26.3730      
# span 11 =     -0.649,     10.064      
# span 12 =     -0.941,     14.596      
# span 13 =     9.0647,    26.7680      
# span 14 =   996.5850,   999.8927      
# span 15 = 0.0000e+00, 0.0000e+00      
# interval = seconds: 0.25
# start_time = Sep 04 2019 11:33:00 [Instrument's time stamp, header]
# bad_flag = -9.990e-29
# <Sensors count="9" >
#   <sensor Channel="1" >
#     <!-- Count, Temperature -->
#     <TemperatureSensor SensorID="58" >
#       <SerialNumber>7809</SerialNumber>
#       <CalibrationDate>24-Mar-19</CalibrationDate>
#       <A0>1.21792325e-003</A0>
#       <A1>2.81669265e-004</A1>
#       <A2>-1.60333336e-006</A2>
#       <A3>1.98414625e-007</A3>
#       <Slope>1.00000000</Slope>
#       <Offset>0.0000</Offset>
#     </TemperatureSensor>
#   </sensor>
#   <sensor Channel="2" >
#     <!-- Frequency 0, Conductivity -->
#     <ConductivitySensor SensorID="3" >
#       <SerialNumber>7809</SerialNumber>
#       <CalibrationDate>24-Mar-19</CalibrationDate>
#       <UseG_J>1</UseG_J>
#       <!-- Cell const and series R are applicable only for wide range sensors. -->
#       <SeriesR>0.0000</SeriesR>
#       <CellConst>2000.0000</CellConst>
#       <ConductivityType>0</ConductivityType>
#       <Coefficients equation="0" >
#         <A>0.00000000e+000</A>
#         <B>0.00000000e+000</B>
#         <C>0.00000000e+000</C>
#         <D>0.00000000e+000</D>
#         <M>0.0</M>
#         <CPcor>-9.57000000e-008</CPcor>
#       </Coefficients>
#       <Coefficients equation="1" >
#         <G>-1.00589325e+000</G>
#         <H>1.26816302e-001</H>
#         <I>-1.51560448e-004</I>
#         <J>2.67137274e-005</J>
#         <CPcor>-9.57000000e-008</CPcor>
#         <CTcor>3.2500e-006</CTcor>
#         <!-- WBOTC not applicable unless ConductivityType = 1. -->
#         <WBOTC>0.00000000e+000</WBOTC>
#       </Coefficients>
#       <Slope>1.00000000</Slope>
#       <Offset>0.00000</Offset>
#     </ConductivitySensor>
#   </sensor>
#   <sensor Channel="3" >
#     <!-- Count, Pressure, Strain Gauge -->
#     <PressureSensor SensorID="46" >
#       <SerialNumber>7809</SerialNumber>
#       <CalibrationDate>11-Mar-19</CalibrationDate>
#       <PA0>4.56561833e-002</PA0>
#       <PA1>4.85095118e-004</PA1>
#       <PA2>-2.88327090e-012</PA2>
#       <PTEMPA0>-5.48784562e+001</PTEMPA0>
#       <PTEMPA1>5.53756816e+001</PTEMPA1>
#       <PTEMPA2>-5.86727098e-001</PTEMPA2>
#       <PTCA0>5.25246745e+005</PTCA0>
#       <PTCA1>1.22304214e+001</PTCA1>
#       <PTCA2>-3.56745036e-001</PTCA2>
#       <PTCB0>2.51668750e+001</PTCB0>
#       <PTCB1>3.75000000e-004</PTCB1>
#       <PTCB2>0.00000000e+000</PTCB2>
#       <Offset>0.000000</Offset>
#     </PressureSensor>
#   </sensor>
#   <sensor Channel="4" >
#     <!-- A/D voltage 0, Oxygen, SBE 43 -->
#     <OxygenSensor SensorID="38" >
#       <SerialNumber>0434</SerialNumber>
#       <CalibrationDate>13-Apr-19</CalibrationDate>
#       <Use2007Equation>1</Use2007Equation>
#       <CalibrationCoefficients equation="0" >
#         <!-- Coefficients for Owens-Millard equation. -->
#         <Boc>0.0000</Boc>
#         <Soc>0.0000e+000</Soc>
#         <offset>0.0000</offset>
#         <Pcor>0.00e+000</Pcor>
#         <Tcor>0.0000</Tcor>
#         <Tau>0.0</Tau>
#       </CalibrationCoefficients>
#       <CalibrationCoefficients equation="1" >
#         <!-- Coefficients for Sea-Bird equation - SBE calibration in 2007 and later. -->
#         <Soc>4.2007e-001</Soc>
#         <offset>-0.6109</offset>
#         <A>-4.3656e-003</A>
#         <B> 1.7017e-004</B>
#         <C>-2.5341e-006</C>
#         <D0> 2.5826e+000</D0>
#         <D1> 1.92634e-004</D1>
#         <D2>-4.64803e-002</D2>
#         <E> 3.6000e-002</E>
#         <Tau20> 1.1800</Tau20>
#         <H1>-3.3000e-002</H1>
#         <H2> 5.0000e+003</H2>
#         <H3> 1.4500e+003</H3>
#       </CalibrationCoefficients>
#     </OxygenSensor>
#   </sensor>
#   <sensor Channel="5" >
#     <!-- A/D voltage 1, PAR/Logarithmic, Satlantic -->
#     <PARLog_SatlanticSensor SensorID="76" >
#       <SerialNumber>1122</SerialNumber>
#       <CalibrationDate>08-May-2019</CalibrationDate>
#       <a0>9.7456e-001</a0>
#       <a1>8.1640e-001</a1>
#       <Im>1.3589e+000</Im>
#       <Multiplier>1.0000e+000</Multiplier>
#     </PARLog_SatlanticSensor>
#   </sensor>
#   <sensor Channel="6" >
#     <!-- A/D voltage 2, pH -->
#     <pH_Sensor SensorID="43" >
#       <SerialNumber>0363</SerialNumber>
#       <CalibrationDate>15-Apr-19</CalibrationDate>
#       <Slope>4.5952</Slope>
#       <Offset>2.5370</Offset>
#     </pH_Sensor>
#   </sensor>
#   <sensor Channel="7" >
#     <!-- A/D voltage 3, Oxidation Reduction Potential -->
#     <OxidationReductionPotentialSensor SensorID="41" >
#       <SerialNumber>0363</SerialNumber>
#       <CalibrationDate>15-Apr-19</CalibrationDate>
#       <B>2.499480</B>
#       <M>-0.496195</M>
#       <Offset>0.0</Offset>
#     </OxidationReductionPotentialSensor>
#   </sensor>
#   <sensor Channel="8" >
#     <!-- A/D voltage 4, Fluorometer, WET Labs ECO-AFL/FL -->
#     <FluoroWetlabECO_AFL_FL_Sensor SensorID="20" >
#       <SerialNumber>FLNTURT-2496</SerialNumber>
#       <CalibrationDate>08-May-2019</CalibrationDate>
#       <ScaleFactor>5.00000000e+001</ScaleFactor>
#       <!-- Dark output -->
#       <Vblank>0.0550</Vblank>
#     </FluoroWetlabECO_AFL_FL_Sensor>
#   </sensor>
#   <sensor Channel="9" >
#     <!-- A/D voltage 5, Turbidity Meter, WET Labs, ECO-NTU -->
#     <TurbidityMeter SensorID="67" >
#       <SerialNumber>FLNTURT-2496</SerialNumber>
#       <CalibrationDate>08-May-2019</CalibrationDate>
#       <ScaleFactor>189.000000</ScaleFactor>
#       <!-- Dark output -->
#       <DarkVoltage>0.071000</DarkVoltage>
#     </TurbidityMeter>
#   </sensor>
# </Sensors>
# datcnv_date = Sep 04 2019 11:47:12, 7.26.7.129 [datcnv_vars = 15]
# datcnv_in = C:\DATA\090419_bvr50.hex C:\DATA\SBE19plusV2_7809.xmlcon
# datcnv_skipover = 0
# datcnv_ox_hysteresis_correction = yes
# datcnv_ox_tau_correction = yes
# filter_date = Sep 04 2019 11:48:13, 7.26.7.129
# filter_in = C:\DATA\090419_bvr50.cnv
# filter_low_pass_tc_A = 0.030
# filter_low_pass_tc_B = 0.150
# filter_low_pass_A_vars = prdM prdE tv290C density00
# filter_low_pass_B_vars = depFM dz/dtM sbeox0Mg/L sbeox0PS specc c0uS/cm flECO-AFL ph orp par/sat/log turbWETntu0
# alignctd_date = Sep 04 2019 11:48:50, 7.26.7.129
# alignctd_in = C:\DATA\090419_bvr50.cnv
# alignctd_adv = dz/dtM 1.000, sbeox0Mg/L 1.000, sbeox0PS 1.000, specc 1.000, c0uS/cm 1.000, flECO-AFL 1.000, ph 1.000, orp 1.000, turbWETntu0 1.000                                                                                 
# file_type = ascii
*END*
     -0.660     -0.001     7.1440     89.230      3.465   3.585622    -0.0661      6.200   656.1811 1.5669e+03    -0.4713     -0.647     -0.938    26.7316   996.5951 0.0000e+00
     -0.661     -0.001     7.1442     89.234      3.256   3.369184    -0.0781      6.205   645.8346 1.5687e+03    -0.4747     -0.648     -0.940    26.7314   996.5952 0.0000e+00
     -0.661     -0.001     7.1434     89.225      3.106   3.213557    -0.0846      6.214   626.6431 1.5688e+03    -0.4550     -0.648     -0.940    26.7312   996.5953 0.0000e+00
     -0.661     -0.000     7.1422     89.211      3.055   3.161387    -0.0837      6.220   616.1766 1.5274e+03    -0.4620     -0.647     -0.939    26.7310   996.5953 0.0000e+00
     -0.661 -1.861e-08     7.1415     89.203      3.320   3.435431    -0.0850      6.222   614.6179 1.2419e+03    -0.4610     -0.648     -0.940    26.7314   996.5952 0.0000e+00
     -0.661 -2.048e-07     7.1412     89.201      3.858   3.992290    -0.0828      6.223   613.3029 9.6766e+02    -0.4436     -0.648     -0.940    26.7322   996.5949 0.0000e+00
     -0.660 -2.048e-07     7.1416     89.207      4.173   4.317920    -0.0740      6.221   612.4953 1.1244e+03    -0.4483     -0.648     -0.939    26.7330   996.5947 0.0000e+00
     -0.660 -1.862e-08     7.1416     89.208      4.001   4.140788    -0.0743      6.218   612.8544 1.3020e+03    -0.4516     -0.648     -0.939    26.7336   996.5945 0.0000e+00
     -0.660 -1.692e-09     7.1416     89.210      3.625   3.751679    -0.0863      6.216   613.1711 1.2900e+03    -0.4510     -0.648     -0.939    26.7340   996.5944 0.0000e+00
     -0.661 -1.538e-10     7.1424     89.221      3.361   3.478746    -0.0890      6.215   614.0871 1.2865e+03    -0.4747     -0.648     -0.940    26.7343   996.5944 0.0000e+00
     -0.661 -1.399e-11     7.1437     89.241      3.200   3.312134    -0.0813      6.214   616.0998 1.2750e+03    -0.4747     -0.648     -0.940    26.7349   996.5944 0.0000e+00
     -0.661 -1.272e-12     7.1445     89.253      3.025   3.131259    -0.0712      6.213   619.1812 1.2176e+03    -0.4507     -0.648     -0.940    26.7362   996.5940 0.0000e+00
     -0.661 -1.156e-13     7.1447     89.258      2.840   2.939331    -0.0627      6.212   622.8646 1.1394e+03    -0.4479     -0.648     -0.940    26.7372   996.5936 0.0000e+00
     -0.661 -1.051e-14     7.1447     89.262      2.733   2.829170    -0.0649      6.213   623.6388 1.1034e+03    -0.4409     -0.648     -0.939    26.7383   996.5933 0.0000e+00
     -0.661 -9.550e-16     7.1442     89.258      2.718   2.813162    -0.0717      6.214   619.5929 1.1301e+03    -0.4314     -0.648     -0.940    26.7399   996.5928 0.0000e+00
     -0.661 -8.685e-17     7.1441     89.258      2.653   2.745786    -0.0748      6.214   614.9874 1.2085e+03    -0.4312     -0.648     -0.940    26.7417   996.5924 0.0000e+00
     -0.661 -7.895e-18     7.1445     89.263      2.497   2.584815    -0.0771      6.213   616.3075 1.2731e+03    -0.4067     -0.649     -0.941    26.7434   996.5918 0.0000e+00
     -0.661 -7.175e-19     7.1442     89.263      2.429   2.514356    -0.0735      6.209   629.1021 1.2463e+03    -0.3962     -0.648     -0.940    26.7450   996.5914 0.0000e+00
     -0.661 -6.525e-20     7.1433     89.253      2.503   2.590880    -0.0659      6.211   630.9901 1.1725e+03    -0.4361     -0.648     -0.940    26.7464   996.5910 0.0000e+00
     -0.661 -5.904e-21     7.1425     89.245      2.534   2.622957    -0.0715      6.222   603.6862 1.1371e+03    -0.4624     -0.648     -0.940    26.7475   996.5907 0.0000e+00
     -0.661 -2.544e-22     7.1420     89.240      2.437   2.522017    -0.0801      6.232   574.2986 1.1220e+03    -0.4512     -0.648     -0.940    26.7488   996.5903 0.0000e+00
     -0.661 3.0815e-21     7.1415     89.236      2.304   2.384251    -0.0753      6.236   549.6163 1.0134e+03    -0.4318     -0.648     -0.940    26.7500   996.5899 0.0000e+00
     -0.661 3.4431e-20     7.1413     89.234      2.210   2.287877    -0.0741      6.231   525.6883 7.5883e+02    -0.4254     -0.649     -0.941    26.7511   996.5897 0.0000e+00
     -0.661 3.7879e-19     7.1407     89.229      2.167   2.243866    -0.0833      6.218   527.0144 4.7018e+02    -0.4391     -0.649     -0.941    26.7522   996.5894 0.0000e+00
     -0.661 4.1667e-18     7.1399     89.220      2.157   2.232303    -0.0908      6.206   557.6493 2.6793e+02    -0.4339     -0.648     -0.940    26.7533   996.5891 0.0000e+00
     -0.661 4.5834e-17     7.1397     89.218      2.137   2.211436    -0.0865      6.201   588.9318 1.7927e+02    -0.3949     -0.648     -0.940    26.7543   996.5888 0.0000e+00
     -0.661 5.0417e-16     7.1401     89.224      2.108   2.181647    -0.0752      6.204   603.3365 1.6066e+02    -0.3940     -0.648     -0.940    26.7550   996.5886 0.0000e+00
     -0.661 5.5459e-15     7.1405     89.232      2.115   2.188946    -0.0747      6.206   608.8655 1.5569e+02    -0.4550     -0.648     -0.940    26.7560   996.5883 0.0000e+00
     -0.661 6.1005e-14     7.1409     89.239      2.160   2.236316    -0.0811      6.202   613.7091 1.4644e+02    -0.4773     -0.648     -0.940    26.7570   996.5880 0.0000e+00
     -0.661 6.7106e-13     7.1414     89.246      2.171   2.247488    -0.0833      6.200   619.6552 1.4145e+02    -0.4345     -0.648     -0.940    26.7577   996.5878 0.0000e+00
     -0.661 7.3816e-12     7.1410     89.242      2.122   2.197299    -0.0834      6.201   625.2632 1.4534e+02    -0.4290     -0.648     -0.940    26.7586   996.5876 0.0000e+00
     -0.661 8.1198e-11     7.1400     89.230      2.063   2.136400    -0.0823      6.206   625.4179 1.5013e+02    -0.4765     -0.647     -0.939    26.7596   996.5873 0.0000e+00
     -0.661 8.9318e-10     7.1394     89.223      2.010   2.081439    -0.0793      6.212   621.2669 1.5111e+02    -0.4845     -0.648     -0.940    26.7606   996.5870 0.0000e+00
     -0.661 9.8249e-09     7.1387     89.215      1.970   2.039664    -0.0728      6.216   618.0941 1.5618e+02    -0.4603     -0.649     -0.941    26.7614   996.5868 0.0000e+00
     -0.661 1.0807e-07     7.1384     89.212      1.943   2.011485    -0.0730      6.219   616.9973 1.8502e+02    -0.4783     -0.648     -0.940    26.7618   996.5867 0.0000e+00
     -0.661      0.000     7.1384     89.214      1.926   1.994179    -0.0815      6.224   618.4166 2.2454e+02    -0.4731     -0.648     -0.940    26.7624   996.5865 0.0000e+00
     -0.661      0.000     7.1382     89.213      2.258   2.337313    -0.0807      6.239   642.1377 2.4212e+02    -0.4954     -0.648     -0.940    26.7630   996.5862 0.0000e+00
     -0.661      0.000     7.1383     89.214      5.583   5.780108    -0.0725      6.310   770.7047 2.4290e+02    -0.6505     -0.648     -0.940    26.7636   996.5863 0.0000e+00
     -0.661      0.002     7.1393     89.219      9.869  10.217158    -0.0771      6.442   940.7404 2.4966e+02    -0.8079     -0.648     -0.941    26.7645   996.5858 0.0000e+00
     -0.661      0.007     7.1422     89.231     13.308  13.773182    -0.0922      6.606   831.2313 3.0255e+02    -0.8905     -0.648     -0.940    26.7656   996.5859 0.0000e+00
     -0.661      0.021     7.1467     89.259     20.303  21.005189    -0.1429      6.886   464.9144 4.4073e+02    -0.6985     -0.649     -0.941    26.7667   996.5850 0.0000e+00
     -0.660      0.046     7.1516     89.296     26.547  27.458511    -0.6989      7.300   224.7439 6.1081e+02     2.0710     -0.647     -0.938    26.7680   996.5856 0.0000e+00
     -0.655      0.082     7.1611     89.387     27.939  28.889366    -1.7256      7.710   174.6097 7.0690e+02     7.1631     -0.646     -0.936    26.7644   996.5884 0.0000e+00
     -0.638      0.129     7.1841     89.627     27.858  28.789639    -2.2829      8.024   171.9290 7.1561e+02     9.9416     -0.636     -0.921    26.7459   996.5927 0.0000e+00
     -0.599      0.185     7.2204     90.014     27.758  28.663699    -2.2351      8.236   171.0801 7.0716e+02    10.5298     -0.593     -0.860    26.7241   996.6020 0.0000e+00
     -0.544      0.245     7.2680     90.524     27.758  28.635548    -1.1307      8.355   170.1099 6.9389e+02    14.7018     -0.537     -0.779    26.7114   996.6080 0.0000e+00
     -0.473      0.295     7.3322     91.230     27.793  28.639558     0.8916      8.403   171.8138 6.5323e+02    22.3032     -0.471     -0.683    26.6986   996.6112 0.0000e+00
     -0.382      0.322     7.4092     92.107     27.828  28.648686     1.9891      8.416   173.8713 6.2435e+02    26.3730     -0.382     -0.555    26.6697   996.6197 0.0000e+00
     -0.274      0.322     7.4852     92.998     27.817  28.618971     2.0573      8.415   174.2522 5.8321e+02    26.1885     -0.268     -0.390    26.6277   996.6314 0.0000e+00
     -0.168      0.296     7.5490     93.759     27.745  28.534038     1.7598      8.407   173.2362 5.0152e+02    19.8423     -0.155     -0.224    26.5774   996.6456 0.0000e+00
     -0.084      0.249     7.5977     94.342     27.729  28.510000     1.2172      8.395   168.9859 5.1293e+02     8.0749     -0.070     -0.101    26.5137   996.6632 0.0000e+00
     -0.030      0.189     7.6317     94.739     27.806  28.582106     0.9242      8.376   159.6006 5.7456e+02     1.6283     -0.021     -0.030    26.4602   996.6779 0.0000e+00
     -0.002      0.123     7.6488     94.926     27.875  28.644500     0.8878      8.355   150.3588 5.7340e+02     0.9848      0.002      0.003    26.4304   996.6860 0.0000e+00
      0.011      0.063     7.6496     94.920     27.866  28.629926     0.8813      8.340   146.2953 8.4513e+02     0.8516      0.014      0.020    26.4145   996.6904 0.0000e+00
      0.015      0.014     7.6351     94.746     27.770  28.532781     0.8889      8.329   150.9081 1.2202e+03     0.7718      0.017      0.025    26.4033   996.6934 0.0000e+00
      0.013     -0.020     7.6090     94.442     27.655  28.421620     0.8931      8.316   161.7354 1.2585e+03     0.7081      0.015      0.022    26.3900   996.6970 0.0000e+00
      0.002     -0.041     7.5807     94.098     27.659  28.427925     0.8882      8.298   167.5930 1.1344e+03     0.6706      0.006      0.010    26.3737   996.7014 0.0000e+00
     -0.018     -0.055     7.5557     93.780     27.776  28.545571     0.8652      8.278   167.8720 8.0486e+02     0.6790     -0.016     -0.022    26.3576   996.7056 0.0000e+00
     -0.041     -0.062     7.5343     93.502     27.870  28.638589     0.8314      8.262   167.8617 4.4621e+02     0.7119     -0.043     -0.062    26.3640   996.7037 0.0000e+00
     -0.059     -0.059     7.5159     93.276     27.894  28.664340     0.8173      8.252   167.8984 3.6463e+02     0.7412     -0.060     -0.086    26.3846   996.6980 0.0000e+00
     -0.073     -0.044     7.5010     93.111     27.890  28.666586     0.8162      8.242   168.0569 3.8028e+02     0.7374     -0.070     -0.101    26.3888   996.6969 0.0000e+00
     -0.088     -0.020     7.4912     93.025     27.878  28.665756     0.8180      8.228   168.1435 3.7671e+02     0.6993     -0.087     -0.127    26.3808   996.6990 0.0000e+00
     -0.097      0.008     7.4889     93.034     27.855  28.654323     0.8563      8.212   167.9131 4.3552e+02     0.7058     -0.102     -0.147    26.3687   996.7023 0.0000e+00
     -0.092      0.033     7.4945     93.134     27.846  28.655269     0.9235      8.196   167.5943 4.9989e+02     0.7513     -0.095     -0.138    26.3694   996.7021 0.0000e+00
