* Sea-Bird SBE19plus  Data File:
* FileName = C:\DATA\090419_bvr50_0001.hex
* Software version 2.8.0.119 SB_Terminal.dll
* Temperature SN = 7809
* Conductivity SN = 7809
* System UpLoad Time = Sep 04 2019 11:44:02
* <ApplicationData>
* <Seaterm232>
* <SoftwareVersion>2.8.0.119</SoftwareVersion>
* <BuildDate>07-Nov-2018</BuildDate>
* </Seaterm232>
* </ApplicationData>
* cast   1 04 Sep 2019 10:12:19 samples 1 to 626, avg = 1, stop = mag switch
# nquan = 16
# nvalues = 496                         
# units = specified
# name 0 = depFM: Depth [fresh water, m]
# name 1 = dz/dtM: Descent Rate [m/s]
# name 2 = sbeox0Mg/L: Oxygen, SBE 43 [mg/l]
# name 3 = sbeox0PS: Oxygen, SBE 43 [% saturation]
# name 4 = specc: Specific Conductance [uS/cm]
# name 5 = c0uS/cm: Conductivity [uS/cm]
# name 6 = flECO-AFL: Fluorescence, WET Labs ECO-AFL/FL [mg/m^3]
# name 7 = ph: pH
# name 8 = orp: Oxidation Reduction Potential [mV]
# name 9 = par/sat/log: PAR/Logarithmic, Satlantic
# name 10 = turbWETntu0: Turbidity, WET Labs ECO [NTU]
# name 11 = prdM: Pressure, Strain Gauge [db]
# name 12 = prdE: Pressure, Strain Gauge [psi]
# name 13 = tv290C: Temperature [ITS-90, deg C]
# name 14 = density00: Density [density, kg/m^3]
# name 15 = flag:  0.000e+00
# span 0 =     -0.577,      9.543       
# span 1 =     -0.005,      0.225       
# span 2 =     2.9376,     8.6465       
# span 3 =     27.517,    104.700       
# span 4 =      0.889,     69.106       
# span 5 =   0.872106,  55.617656       
# span 6 =    -0.6576,    15.3082       
# span 7 =     -2.356,      7.968       
# span 8 =  -516.3619,   147.6590       
# span 9 = 1.2355e-01, 1.3887e+03       
# span 10 =    -1.5867,    27.4839      
# span 11 =     -0.566,      9.359      
# span 12 =     -0.821,     13.573      
# span 13 =    12.3984,    25.0652      
# span 14 =   997.0509,   999.5213      
# span 15 = 0.0000e+00, 0.0000e+00      
# interval = seconds: 0.25
# start_time = Sep 04 2019 10:12:19 [Instrument's time stamp, header]
# bad_flag = -9.990e-29
# <Sensors count="9" >
#   <sensor Channel="1" >
#     <!-- Count, Temperature -->
#     <TemperatureSensor SensorID="58" >
#       <SerialNumber>7809</SerialNumber>
#       <CalibrationDate>24-Mar-19</CalibrationDate>
#       <A0>1.21792325e-003</A0>
#       <A1>2.81669265e-004</A1>
#       <A2>-1.60333336e-006</A2>
#       <A3>1.98414625e-007</A3>
#       <Slope>1.00000000</Slope>
#       <Offset>0.0000</Offset>
#     </TemperatureSensor>
#   </sensor>
#   <sensor Channel="2" >
#     <!-- Frequency 0, Conductivity -->
#     <ConductivitySensor SensorID="3" >
#       <SerialNumber>7809</SerialNumber>
#       <CalibrationDate>24-Mar-19</CalibrationDate>
#       <UseG_J>1</UseG_J>
#       <!-- Cell const and series R are applicable only for wide range sensors. -->
#       <SeriesR>0.0000</SeriesR>
#       <CellConst>2000.0000</CellConst>
#       <ConductivityType>0</ConductivityType>
#       <Coefficients equation="0" >
#         <A>0.00000000e+000</A>
#         <B>0.00000000e+000</B>
#         <C>0.00000000e+000</C>
#         <D>0.00000000e+000</D>
#         <M>0.0</M>
#         <CPcor>-9.57000000e-008</CPcor>
#       </Coefficients>
#       <Coefficients equation="1" >
#         <G>-1.00589325e+000</G>
#         <H>1.26816302e-001</H>
#         <I>-1.51560448e-004</I>
#         <J>2.67137274e-005</J>
#         <CPcor>-9.57000000e-008</CPcor>
#         <CTcor>3.2500e-006</CTcor>
#         <!-- WBOTC not applicable unless ConductivityType = 1. -->
#         <WBOTC>0.00000000e+000</WBOTC>
#       </Coefficients>
#       <Slope>1.00000000</Slope>
#       <Offset>0.00000</Offset>
#     </ConductivitySensor>
#   </sensor>
#   <sensor Channel="3" >
#     <!-- Count, Pressure, Strain Gauge -->
#     <PressureSensor SensorID="46" >
#       <SerialNumber>7809</SerialNumber>
#       <CalibrationDate>11-Mar-19</CalibrationDate>
#       <PA0>4.56561833e-002</PA0>
#       <PA1>4.85095118e-004</PA1>
#       <PA2>-2.88327090e-012</PA2>
#       <PTEMPA0>-5.48784562e+001</PTEMPA0>
#       <PTEMPA1>5.53756816e+001</PTEMPA1>
#       <PTEMPA2>-5.86727098e-001</PTEMPA2>
#       <PTCA0>5.25246745e+005</PTCA0>
#       <PTCA1>1.22304214e+001</PTCA1>
#       <PTCA2>-3.56745036e-001</PTCA2>
#       <PTCB0>2.51668750e+001</PTCB0>
#       <PTCB1>3.75000000e-004</PTCB1>
#       <PTCB2>0.00000000e+000</PTCB2>
#       <Offset>0.000000</Offset>
#     </PressureSensor>
#   </sensor>
#   <sensor Channel="4" >
#     <!-- A/D voltage 0, Oxygen, SBE 43 -->
#     <OxygenSensor SensorID="38" >
#       <SerialNumber>0434</SerialNumber>
#       <CalibrationDate>13-Apr-19</CalibrationDate>
#       <Use2007Equation>1</Use2007Equation>
#       <CalibrationCoefficients equation="0" >
#         <!-- Coefficients for Owens-Millard equation. -->
#         <Boc>0.0000</Boc>
#         <Soc>0.0000e+000</Soc>
#         <offset>0.0000</offset>
#         <Pcor>0.00e+000</Pcor>
#         <Tcor>0.0000</Tcor>
#         <Tau>0.0</Tau>
#       </CalibrationCoefficients>
#       <CalibrationCoefficients equation="1" >
#         <!-- Coefficients for Sea-Bird equation - SBE calibration in 2007 and later. -->
#         <Soc>4.2007e-001</Soc>
#         <offset>-0.6109</offset>
#         <A>-4.3656e-003</A>
#         <B> 1.7017e-004</B>
#         <C>-2.5341e-006</C>
#         <D0> 2.5826e+000</D0>
#         <D1> 1.92634e-004</D1>
#         <D2>-4.64803e-002</D2>
#         <E> 3.6000e-002</E>
#         <Tau20> 1.1800</Tau20>
#         <H1>-3.3000e-002</H1>
#         <H2> 5.0000e+003</H2>
#         <H3> 1.4500e+003</H3>
#       </CalibrationCoefficients>
#     </OxygenSensor>
#   </sensor>
#   <sensor Channel="5" >
#     <!-- A/D voltage 1, PAR/Logarithmic, Satlantic -->
#     <PARLog_SatlanticSensor SensorID="76" >
#       <SerialNumber>1122</SerialNumber>
#       <CalibrationDate>08-May-2019</CalibrationDate>
#       <a0>9.7456e-001</a0>
#       <a1>8.1640e-001</a1>
#       <Im>1.3589e+000</Im>
#       <Multiplier>1.0000e+000</Multiplier>
#     </PARLog_SatlanticSensor>
#   </sensor>
#   <sensor Channel="6" >
#     <!-- A/D voltage 2, pH -->
#     <pH_Sensor SensorID="43" >
#       <SerialNumber>0363</SerialNumber>
#       <CalibrationDate>15-Apr-19</CalibrationDate>
#       <Slope>4.5952</Slope>
#       <Offset>2.5370</Offset>
#     </pH_Sensor>
#   </sensor>
#   <sensor Channel="7" >
#     <!-- A/D voltage 3, Oxidation Reduction Potential -->
#     <OxidationReductionPotentialSensor SensorID="41" >
#       <SerialNumber>0363</SerialNumber>
#       <CalibrationDate>15-Apr-19</CalibrationDate>
#       <B>2.499480</B>
#       <M>-0.496195</M>
#       <Offset>0.0</Offset>
#     </OxidationReductionPotentialSensor>
#   </sensor>
#   <sensor Channel="8" >
#     <!-- A/D voltage 4, Fluorometer, WET Labs ECO-AFL/FL -->
#     <FluoroWetlabECO_AFL_FL_Sensor SensorID="20" >
#       <SerialNumber>FLNTURT-2496</SerialNumber>
#       <CalibrationDate>08-May-2019</CalibrationDate>
#       <ScaleFactor>5.00000000e+001</ScaleFactor>
#       <!-- Dark output -->
#       <Vblank>0.0550</Vblank>
#     </FluoroWetlabECO_AFL_FL_Sensor>
#   </sensor>
#   <sensor Channel="9" >
#     <!-- A/D voltage 5, Turbidity Meter, WET Labs, ECO-NTU -->
#     <TurbidityMeter SensorID="67" >
#       <SerialNumber>FLNTURT-2496</SerialNumber>
#       <CalibrationDate>08-May-2019</CalibrationDate>
#       <ScaleFactor>189.000000</ScaleFactor>
#       <!-- Dark output -->
#       <DarkVoltage>0.071000</DarkVoltage>
#     </TurbidityMeter>
#   </sensor>
# </Sensors>
# datcnv_date = Sep 04 2019 11:47:12, 7.26.7.129 [datcnv_vars = 15]
# datcnv_in = C:\DATA\090419_fcr50.hex C:\DATA\SBE19plusV2_7809.xmlcon
# datcnv_skipover = 0
# datcnv_ox_hysteresis_correction = yes
# datcnv_ox_tau_correction = yes
# filter_date = Sep 04 2019 11:48:18, 7.26.7.129
# filter_in = C:\DATA\090419_fcr50.cnv
# filter_low_pass_tc_A = 0.030
# filter_low_pass_tc_B = 0.150
# filter_low_pass_A_vars = prdM prdE tv290C density00
# filter_low_pass_B_vars = depFM dz/dtM sbeox0Mg/L sbeox0PS specc c0uS/cm flECO-AFL ph orp par/sat/log turbWETntu0
# alignctd_date = Sep 04 2019 11:48:51, 7.26.7.129
# alignctd_in = C:\DATA\090419_fcr50.cnv
# alignctd_adv = dz/dtM 1.000, sbeox0Mg/L 1.000, sbeox0PS 1.000, specc 1.000, c0uS/cm 1.000, flECO-AFL 1.000, ph 1.000, orp 1.000, turbWETntu0 1.000                                                                                 
# file_type = ascii
*END*
     -0.577 4.3139e-20     7.8194     93.275      2.042   2.010565    -0.1134     -2.356  -253.8763 1.9381e+02     0.2253     -0.565     -0.820    24.2370   997.2457 0.0000e+00
     -0.576 3.9217e-21     7.8201     93.275      1.829   1.800509    -0.1009     -2.341  -266.5605 3.4843e+02     0.2351     -0.565     -0.820    24.2313   997.2471 0.0000e+00
     -0.576 3.5652e-22     7.8202     93.268      1.674   1.647451    -0.0906     -2.203  -279.4633 6.1122e+02     0.1990     -0.565     -0.819    24.2250   997.2486 0.0000e+00
     -0.576 3.2410e-23     7.8205     93.261      1.579   1.553934    -0.0410     -1.848  -290.6323 7.5582e+02     0.0182     -0.565     -0.820    24.2217   997.2494 0.0000e+00
     -0.576 2.9464e-24     7.8220     93.264      1.517   1.493507     0.0657     -1.391  -299.8201 7.0258e+02    -0.2797     -0.565     -0.819    24.2188   997.2500 0.0000e+00
     -0.576 2.6817e-25     7.8231     93.264      1.447   1.423722     0.1334     -0.967  -311.7406 6.6668e+02    -0.4528     -0.565     -0.820    24.2143   997.2512 0.0000e+00
     -0.577 2.7778e-26     7.8256     93.280      1.366   1.343782     0.1358     -0.624  -329.5355 8.6757e+02    -0.4692     -0.566     -0.821    24.2094   997.2524 0.0000e+00
     -0.577 3.9911e-26     7.8291     93.307      1.309   1.287301     0.0419     -0.346  -346.3391 9.2097e+02    -0.4127     -0.565     -0.820    24.2040   997.2537 0.0000e+00
     -0.576 4.1487e-25     7.8306     93.308      1.269   1.247692    -0.1339     -0.109  -350.3189 8.1484e+02    -0.2933     -0.565     -0.820    24.1958   997.2556 0.0000e+00
     -0.576 4.5614e-24     7.8328     93.318      1.202   1.181682    -0.2300      0.052  -342.8951 7.8094e+02    -0.2053     -0.565     -0.819    24.1869   997.2579 0.0000e+00
     -0.576 5.0175e-23     7.8372     93.356      1.142   1.122791    -0.2367      0.177  -340.7251 5.2337e+02    -0.2010     -0.565     -0.819    24.1792   997.2599 0.0000e+00
     -0.576 5.5192e-22     7.8415     93.396      1.125   1.105887    -0.2323      0.374  -349.0324 2.3524e+02    -0.2417     -0.565     -0.820    24.1706   997.2620 0.0000e+00
     -0.576 6.0711e-21     7.8452     93.430      1.124   1.104030    -0.2288      0.664  -361.5149 2.2190e+02    -0.2385     -0.565     -0.819    24.1604   997.2646 0.0000e+00
     -0.576 6.6783e-20     7.8485     93.456      1.120   1.100330    -0.2199      1.013  -376.0987 5.3020e+02    -0.1949     -0.565     -0.820    24.1510   997.2668 0.0000e+00
     -0.576 7.3461e-19     7.8523     93.489      1.080   1.061160    -0.2118      1.406  -391.6594 9.4652e+02    -0.2059     -0.565     -0.819    24.1431   997.2687 0.0000e+00
     -0.576 8.0807e-18     7.8575     93.539      1.029   1.010575    -0.1916      1.827  -407.0901 8.6328e+02    -0.3724     -0.564     -0.819    24.1365   997.2704 0.0000e+00
     -0.576 8.8888e-17     7.8631     93.598      1.014   0.995600    -0.1401      2.258  -421.9098 4.0330e+02    -0.6024     -0.565     -0.820    24.1306   997.2719 0.0000e+00
     -0.576 9.7776e-16     7.8672     93.640      1.025   1.006814    -0.1002      2.689  -435.8483 1.5833e+02    -0.6922     -0.565     -0.820    24.1240   997.2735 0.0000e+00
     -0.576 1.0755e-14     7.8703     93.669      1.038   1.019447    -0.0912      3.110  -449.6582 1.1450e+02    -0.7041     -0.565     -0.820    24.1163   997.2753 0.0000e+00
     -0.576 1.1831e-13     7.8735     93.698      1.040   1.021613    -0.1004      3.526  -464.3847 9.8026e+01    -0.7788     -0.565     -0.819    24.1095   997.2771 0.0000e+00
     -0.576 1.3014e-12     7.8772     93.733      1.052   1.033008    -0.1077      3.950  -479.9419 1.3731e+02    -0.8748     -0.564     -0.818    24.1050   997.2782 0.0000e+00
     -0.576 1.4315e-11     7.8810     93.770      1.050   1.030504    -0.1014      4.375  -494.8488 1.8844e+02    -0.9146     -0.565     -0.819    24.1012   997.2792 0.0000e+00
     -0.576 1.5747e-10     7.8844     93.804      1.010   0.991335    -0.0937      4.786  -507.5614 1.6441e+02    -0.9328     -0.565     -0.820    24.0968   997.2803 0.0000e+00
     -0.576 1.7322e-09     7.8879     93.838      0.957   0.939582    -0.0833      5.161  -515.6028 1.1747e+02    -0.9298     -0.565     -0.820    24.0917   997.2816 0.0000e+00
     -0.576 1.9054e-08     7.8906     93.863      0.929   0.911640     0.0676      5.461  -516.3619 1.0476e+02    -1.0748     -0.564     -0.819    24.0863   997.2828 0.0000e+00
     -0.576 2.0959e-07     7.8921     93.878      0.924   0.906936     0.3703      5.664  -511.4049 1.0979e+02    -1.4083     -0.565     -0.819    24.0818   997.2839 0.0000e+00
     -0.576      0.000     7.8934     93.893      0.899   0.882705     0.5423      5.785  -504.4531 1.1649e+02    -1.5867     -0.564     -0.819    24.0779   997.2849 0.0000e+00
     -0.576      0.000     7.8948     93.908      0.889   0.872106     0.5431      5.855  -495.5477 1.1500e+02    -1.5602     -0.565     -0.819    24.0738   997.2859 0.0000e+00
     -0.576      0.000     7.8956     93.918      1.052   1.032224     0.3535      5.920  -466.3664 1.1295e+02    -1.2192     -0.565     -0.820    24.0701   997.2868 0.0000e+00
     -0.576      0.003     7.8957     93.925      2.483   2.438516    -0.0076      6.251  -219.1649 1.1968e+02    -0.6096     -0.564     -0.819    24.0679   997.2874 0.0000e+00
     -0.576      0.014     7.8915     93.926      8.127   7.990341    -0.2075      6.861   122.1025 1.5468e+02    -0.2856     -0.565     -0.820    24.0666   997.2877 0.0000e+00
     -0.575      0.036     7.8740     93.906     19.119  18.846514    -0.2349      7.270   147.6590 4.5593e+02    -0.2177     -0.564     -0.819    24.0667   997.2878 0.0000e+00
     -0.574      0.069     7.8432     93.871     30.240  29.904171    -0.3470      7.425    47.0754 1.0046e+03    -0.0190     -0.564     -0.819    24.0661   997.2879 0.0000e+00
     -0.565      0.108     7.8107     93.828     35.916  35.636036    -0.5491      7.562    39.6933 1.3121e+03     0.2817     -0.563     -0.817    24.0675   997.2874 0.0000e+00
     -0.533      0.148     7.7833     93.774     37.253  37.074195    -0.6576      7.697    42.8307 1.3548e+03     0.5018     -0.534     -0.774    24.0666   997.2885 0.0000e+00
     -0.476      0.185     7.7624     93.739     37.415  37.328438    -0.6279      7.810    46.7221 1.3781e+03     1.1338     -0.470     -0.681    24.1638   997.2683 0.0000e+00
     -0.410      0.213     7.7510     93.759     37.396  37.377246    -0.2507      7.887    49.4881 1.3887e+03     7.9565     -0.399     -0.578    24.3999   997.2139 0.0000e+00
     -0.347      0.225     7.7522     93.858     37.329  37.347056     0.4182      7.934    51.6672 1.3760e+03    20.4983     -0.340     -0.495    24.6120   997.1622 0.0000e+00
     -0.285      0.221     7.7675     94.072     37.251  37.280839     0.7755      7.960    53.6251 1.3628e+03    27.3229     -0.280     -0.406    24.7613   997.1248 0.0000e+00
     -0.225      0.206     7.7947     94.405     37.181  37.211374     0.8006      7.968    55.0923 1.3702e+03    27.4839     -0.217     -0.313    24.8894   997.0925 0.0000e+00
     -0.173      0.183     7.8285     94.802     37.116  37.141908     0.8081      7.961    55.8126 1.3810e+03    22.4129     -0.168     -0.243    24.9835   997.0686 0.0000e+00
     -0.130      0.158     7.8653     95.221     37.061  37.075664     0.8403      7.948    56.6559 1.3826e+03    13.0708     -0.125     -0.183    25.0295   997.0570 0.0000e+00
     -0.093      0.128     7.9024     95.637     37.045  37.045138     0.8611      7.935    57.8036 1.3781e+03     7.9947     -0.090     -0.132    25.0377   997.0550 0.0000e+00
     -0.062      0.097     7.9363     96.023     37.036  37.026695     0.8599      7.925    58.8473 1.3716e+03     7.5088     -0.058     -0.084    25.0373   997.0552 0.0000e+00
     -0.041      0.067     7.9639     96.347     36.994  36.979605     0.8606      7.922    59.7251 1.3744e+03     7.4593     -0.036     -0.053    25.0324   997.0566 0.0000e+00
     -0.029      0.041     7.9823     96.564     36.936  36.920086     0.8606      7.919    60.5016 1.3779e+03     7.5263     -0.027     -0.039    25.0147   997.0612 0.0000e+00
     -0.025      0.021     7.9917     96.673     36.896  36.878320     0.8593      7.913    61.2672 1.3759e+03     7.5656     -0.022     -0.031    24.9908   997.0672 0.0000e+00
     -0.028      0.006     7.9935     96.691     36.874  36.855445     0.8547      7.907    62.0124 1.3773e+03     7.5087     -0.026     -0.038    24.9786   997.0704 0.0000e+00
     -0.034     -0.002     7.9900     96.633     36.859  36.833923     0.8479      7.901    62.7145 1.3768e+03     7.4608     -0.036     -0.052    24.9741   997.0715 0.0000e+00
     -0.037     -0.005     7.9846     96.537     36.847  36.808508     0.8549      7.892    63.3892 1.3728e+03     7.4775     -0.038     -0.056    24.9718   997.0720 0.0000e+00
     -0.037     -0.005     7.9783     96.429     36.854  36.802027     0.8699      7.884    64.0616 1.3711e+03     7.5145     -0.036     -0.053    24.9691   997.0727 0.0000e+00
     -0.037     -0.002     7.9713     96.329     36.877  36.819008     0.8739      7.878    64.5641 1.3687e+03     7.5470     -0.036     -0.052    24.9688   997.0728 0.0000e+00
     -0.037      0.000     7.9642     96.238     36.884  36.823403     0.8687      7.872    64.9039 1.3656e+03     7.5439     -0.036     -0.053    24.9648   997.0738 0.0000e+00
     -0.037      0.000     7.9588     96.164     36.856  36.791693     0.8669      7.867    65.2445 1.3530e+03     7.5094     -0.036     -0.052    24.9414   997.0798 0.0000e+00
     -0.037      0.000     7.9542     96.097     36.822  36.752966     0.8697      7.862    65.6710 1.2546e+03     7.4899     -0.036     -0.053    24.9188   997.0855 0.0000e+00
     -0.037      0.001     7.9498     96.034     36.809  36.735986     0.8686      7.855    66.2750 9.6762e+02     7.4725     -0.036     -0.052    24.9135   997.0869 0.0000e+00
     -0.037      0.001     7.9478     96.004     36.789  36.713331     0.8613      7.848    66.7830 5.8431e+02     7.4296     -0.037     -0.053    24.9128   997.0872 0.0000e+00
     -0.036      0.001     7.9457     95.975     36.746  36.669448     0.8684      7.842    67.0808 4.0934e+02     7.3646     -0.036     -0.052    24.9081   997.0883 0.0000e+00
     -0.036      0.001     7.9423     95.933     36.727  36.649714     0.8934      7.838    67.4663 6.0220e+02     7.3092     -0.035     -0.051    24.9001   997.0902 0.0000e+00
     -0.035      0.001     7.9397     95.901     36.744  36.665139     0.9125      7.834    67.9176 9.7495e+02     7.2843     -0.035     -0.050    24.8935   997.0920 0.0000e+00
     -0.035      0.001     7.9363     95.856     36.745  36.665533     0.9270      7.829    68.4932 1.2448e+03     7.2604     -0.035     -0.050    24.8902   997.0928 0.0000e+00
     -0.035      0.000     7.9335     95.818     36.735  36.654483     0.9293      7.824    69.0921 1.3389e+03     7.2823     -0.035     -0.050    24.8896   997.0930 0.0000e+00
     -0.035 5.5854e-08     7.9330     95.808     36.740  36.658474     0.9144      7.819    69.3066 1.3530e+03     7.3850     -0.035     -0.050    24.8893   997.0930 0.0000e+00
     -0.035 6.1439e-07     7.9316     95.788     36.734  36.650310     0.9109      7.814    69.2805 1.3558e+03     7.4536     -0.035     -0.050    24.8883   997.0933 0.0000e+00
