* Sea-Bird SBE19plus  Data File:
* FileName = C:\DATA\090419_bvr50_0003.hex
* Software version 2.8.0.119 SB_Terminal.dll
* Temperature SN = 7809
* Conductivity SN = 7809
* System UpLoad Time = Sep 04 2019 17:00:34
* <ApplicationData>
* <Seaterm232>
* <SoftwareVersion>2.8.0.119</SoftwareVersion>
* <BuildDate>07-Nov-2018</BuildDate>
* </Seaterm232>
* </ApplicationData>
* cast   3 04 Sep 2019 12:58:53 samples 1631 to 2733, avg = 1, stop = mag switch
# nquan = 16
# nvalues = 908                         
# units = specified
# name 0 = depFM: Depth [fresh water, m]
# name 1 = dz/dtM: Descent Rate [m/s]
# name 2 = sbeox0Mg/L: Oxygen, SBE 43 [mg/l]
# name 3 = sbeox0PS: Oxygen, SBE 43 [% saturation]
# name 4 = specc: Specific Conductance [uS/cm]
# name 5 = c0uS/cm: Conductivity [uS/cm]
# name 6 = flECO-AFL: Fluorescence, WET Labs ECO-AFL/FL [mg/m^3]
# name 7 = ph: pH
# name 8 = orp: Oxidation Reduction Potential [mV]
# name 9 = par/sat/log: PAR/Logarithmic, Satlantic
# name 10 = turbWETntu0: Turbidity, WET Labs ECO [NTU]
# name 11 = prdM: Pressure, Strain Gauge [db]
# name 12 = prdE: Pressure, Strain Gauge [psi]
# name 13 = tv290C: Temperature [ITS-90, deg C]
# name 14 = density00: Density [density, kg/m^3]
# name 15 = flag:  0.000e+00
# span 0 =     -0.664,     10.491       
# span 1 =     -0.023,      0.209       
# span 2 =    -0.0756,     7.9155       
# span 3 =     -0.789,     99.188       
# span 4 =      1.017,    268.417       
# span 5 =   1.212542, 183.575070       
# span 6 =    -0.1462,    27.9354       
# span 7 =      6.040,      8.238       
# span 8 =  -114.4193,   219.5486       
# span 9 = 1.2326e-01, 1.7005e+03       
# span 10 =    -1.0462,    30.7416      
# span 11 =     -0.652,     10.288      
# span 12 =     -0.945,     14.921      
# span 13 =     8.9366,    34.6160      
# span 14 =   994.1725,   999.9251      
# span 15 = 0.0000e+00, 0.0000e+00      
# interval = seconds: 0.25
# start_time = Sep 04 2019 12:58:53 [Instrument's time stamp, header]
# bad_flag = -9.990e-29
# <Sensors count="9" >
#   <sensor Channel="1" >
#     <!-- Count, Temperature -->
#     <TemperatureSensor SensorID="58" >
#       <SerialNumber>7809</SerialNumber>
#       <CalibrationDate>24-Mar-19</CalibrationDate>
#       <A0>1.21792325e-003</A0>
#       <A1>2.81669265e-004</A1>
#       <A2>-1.60333336e-006</A2>
#       <A3>1.98414625e-007</A3>
#       <Slope>1.00000000</Slope>
#       <Offset>0.0000</Offset>
#     </TemperatureSensor>
#   </sensor>
#   <sensor Channel="2" >
#     <!-- Frequency 0, Conductivity -->
#     <ConductivitySensor SensorID="3" >
#       <SerialNumber>7809</SerialNumber>
#       <CalibrationDate>24-Mar-19</CalibrationDate>
#       <UseG_J>1</UseG_J>
#       <!-- Cell const and series R are applicable only for wide range sensors. -->
#       <SeriesR>0.0000</SeriesR>
#       <CellConst>2000.0000</CellConst>
#       <ConductivityType>0</ConductivityType>
#       <Coefficients equation="0" >
#         <A>0.00000000e+000</A>
#         <B>0.00000000e+000</B>
#         <C>0.00000000e+000</C>
#         <D>0.00000000e+000</D>
#         <M>0.0</M>
#         <CPcor>-9.57000000e-008</CPcor>
#       </Coefficients>
#       <Coefficients equation="1" >
#         <G>-1.00589325e+000</G>
#         <H>1.26816302e-001</H>
#         <I>-1.51560448e-004</I>
#         <J>2.67137274e-005</J>
#         <CPcor>-9.57000000e-008</CPcor>
#         <CTcor>3.2500e-006</CTcor>
#         <!-- WBOTC not applicable unless ConductivityType = 1. -->
#         <WBOTC>0.00000000e+000</WBOTC>
#       </Coefficients>
#       <Slope>1.00000000</Slope>
#       <Offset>0.00000</Offset>
#     </ConductivitySensor>
#   </sensor>
#   <sensor Channel="3" >
#     <!-- Count, Pressure, Strain Gauge -->
#     <PressureSensor SensorID="46" >
#       <SerialNumber>7809</SerialNumber>
#       <CalibrationDate>11-Mar-19</CalibrationDate>
#       <PA0>4.56561833e-002</PA0>
#       <PA1>4.85095118e-004</PA1>
#       <PA2>-2.88327090e-012</PA2>
#       <PTEMPA0>-5.48784562e+001</PTEMPA0>
#       <PTEMPA1>5.53756816e+001</PTEMPA1>
#       <PTEMPA2>-5.86727098e-001</PTEMPA2>
#       <PTCA0>5.25246745e+005</PTCA0>
#       <PTCA1>1.22304214e+001</PTCA1>
#       <PTCA2>-3.56745036e-001</PTCA2>
#       <PTCB0>2.51668750e+001</PTCB0>
#       <PTCB1>3.75000000e-004</PTCB1>
#       <PTCB2>0.00000000e+000</PTCB2>
#       <Offset>0.000000</Offset>
#     </PressureSensor>
#   </sensor>
#   <sensor Channel="4" >
#     <!-- A/D voltage 0, Oxygen, SBE 43 -->
#     <OxygenSensor SensorID="38" >
#       <SerialNumber>0434</SerialNumber>
#       <CalibrationDate>13-Apr-19</CalibrationDate>
#       <Use2007Equation>1</Use2007Equation>
#       <CalibrationCoefficients equation="0" >
#         <!-- Coefficients for Owens-Millard equation. -->
#         <Boc>0.0000</Boc>
#         <Soc>0.0000e+000</Soc>
#         <offset>0.0000</offset>
#         <Pcor>0.00e+000</Pcor>
#         <Tcor>0.0000</Tcor>
#         <Tau>0.0</Tau>
#       </CalibrationCoefficients>
#       <CalibrationCoefficients equation="1" >
#         <!-- Coefficients for Sea-Bird equation - SBE calibration in 2007 and later. -->
#         <Soc>4.2007e-001</Soc>
#         <offset>-0.6109</offset>
#         <A>-4.3656e-003</A>
#         <B> 1.7017e-004</B>
#         <C>-2.5341e-006</C>
#         <D0> 2.5826e+000</D0>
#         <D1> 1.92634e-004</D1>
#         <D2>-4.64803e-002</D2>
#         <E> 3.6000e-002</E>
#         <Tau20> 1.1800</Tau20>
#         <H1>-3.3000e-002</H1>
#         <H2> 5.0000e+003</H2>
#         <H3> 1.4500e+003</H3>
#       </CalibrationCoefficients>
#     </OxygenSensor>
#   </sensor>
#   <sensor Channel="5" >
#     <!-- A/D voltage 1, PAR/Logarithmic, Satlantic -->
#     <PARLog_SatlanticSensor SensorID="76" >
#       <SerialNumber>1122</SerialNumber>
#       <CalibrationDate>08-May-2019</CalibrationDate>
#       <a0>9.7456e-001</a0>
#       <a1>8.1640e-001</a1>
#       <Im>1.3589e+000</Im>
#       <Multiplier>1.0000e+000</Multiplier>
#     </PARLog_SatlanticSensor>
#   </sensor>
#   <sensor Channel="6" >
#     <!-- A/D voltage 2, pH -->
#     <pH_Sensor SensorID="43" >
#       <SerialNumber>0363</SerialNumber>
#       <CalibrationDate>15-Apr-19</CalibrationDate>
#       <Slope>4.5952</Slope>
#       <Offset>2.5370</Offset>
#     </pH_Sensor>
#   </sensor>
#   <sensor Channel="7" >
#     <!-- A/D voltage 3, Oxidation Reduction Potential -->
#     <OxidationReductionPotentialSensor SensorID="41" >
#       <SerialNumber>0363</SerialNumber>
#       <CalibrationDate>15-Apr-19</CalibrationDate>
#       <B>2.499480</B>
#       <M>-0.496195</M>
#       <Offset>0.0</Offset>
#     </OxidationReductionPotentialSensor>
#   </sensor>
#   <sensor Channel="8" >
#     <!-- A/D voltage 4, Fluorometer, WET Labs ECO-AFL/FL -->
#     <FluoroWetlabECO_AFL_FL_Sensor SensorID="20" >
#       <SerialNumber>FLNTURT-2496</SerialNumber>
#       <CalibrationDate>08-May-2019</CalibrationDate>
#       <ScaleFactor>5.00000000e+001</ScaleFactor>
#       <!-- Dark output -->
#       <Vblank>0.0550</Vblank>
#     </FluoroWetlabECO_AFL_FL_Sensor>
#   </sensor>
#   <sensor Channel="9" >
#     <!-- A/D voltage 5, Turbidity Meter, WET Labs, ECO-NTU -->
#     <TurbidityMeter SensorID="67" >
#       <SerialNumber>FLNTURT-2496</SerialNumber>
#       <CalibrationDate>08-May-2019</CalibrationDate>
#       <ScaleFactor>189.000000</ScaleFactor>
#       <!-- Dark output -->
#       <DarkVoltage>0.071000</DarkVoltage>
#     </TurbidityMeter>
#   </sensor>
# </Sensors>
# datcnv_date = Sep 04 2019 17:01:02, 7.26.7.129 [datcnv_vars = 15]
# datcnv_in = C:\DATA\090419_bvr50_0003.hex C:\DATA\SBE19plusV2_7809.xmlcon
# datcnv_skipover = 0
# datcnv_ox_hysteresis_correction = yes
# datcnv_ox_tau_correction = yes
# filter_date = Sep 04 2019 17:01:24, 7.26.7.129
# filter_in = C:\DATA\090419_bvr50_0003.cnv
# filter_low_pass_tc_A = 0.030
# filter_low_pass_tc_B = 0.150
# filter_low_pass_A_vars = prdM prdE tv290C density00
# filter_low_pass_B_vars = depFM dz/dtM sbeox0Mg/L sbeox0PS specc c0uS/cm flECO-AFL ph orp par/sat/log turbWETntu0
# alignctd_date = Sep 04 2019 17:01:48, 7.26.7.129
# alignctd_in = C:\DATA\090419_bvr50_0003.cnv
# alignctd_adv = dz/dtM 1.000, sbeox0Mg/L 1.000, sbeox0PS 1.000, specc 1.000, c0uS/cm 1.000, flECO-AFL 1.000, ph 1.000, orp 1.000, turbWETntu0 1.000                                                                                 
# file_type = ascii
*END*
     -0.664 4.8448e-18     6.5915     94.228      1.017   1.212542    -0.1396      6.225   200.2688 1.6992e+03    -0.5965     -0.651     -0.944    34.5933   994.1804 0.0000e+00
     -0.664 5.3293e-17     6.5918     94.233      1.067   1.272092    -0.1462      6.215   208.2933 1.0778e+03    -0.5873     -0.651     -0.944    34.5946   994.1799 0.0000e+00
     -0.664 5.8622e-16     6.5922     94.239      1.175   1.400728    -0.0381      6.205   210.9446 5.1891e+02    -0.5293     -0.651     -0.945    34.5962   994.1794 0.0000e+00
     -0.664 6.4484e-15     6.5917     94.232      1.418   1.690772     0.1707      6.206   203.0719 6.8874e+02    -0.3870     -0.651     -0.944    34.5979   994.1788 0.0000e+00
     -0.664 7.0933e-14     6.5914     94.230      1.723   2.054499     0.2794      6.212   194.7562 1.3829e+03    -0.2763     -0.651     -0.945    34.5985   994.1786 0.0000e+00
     -0.664 7.8026e-13     6.5919     94.237      1.941   2.313691     0.2791      6.215   193.4280 1.6285e+03    -0.2732     -0.652     -0.945    34.5980   994.1788 0.0000e+00
     -0.664 8.5829e-12     6.5917     94.237      2.081   2.480279     0.2802      6.216   199.9186 1.1295e+03    -0.2828     -0.651     -0.944    34.5987   994.1785 0.0000e+00
     -0.664 9.4411e-11     6.5913     94.234      2.191   2.611369     0.2063      6.219   211.5432 4.8560e+02     0.0991     -0.651     -0.944    34.5991   994.1784 0.0000e+00
     -0.664 1.0385e-09     6.5900     94.217      2.261   2.694793     0.0360      6.219   219.5486 2.0462e+02     0.8374     -0.651     -0.944    34.5995   994.1783 0.0000e+00
     -0.664 1.1424e-08     6.5867     94.171      2.236   2.665225    -0.0625      6.217   219.5336 1.8554e+02     1.2709     -0.651     -0.944    34.6009   994.1778 0.0000e+00
     -0.664 1.2566e-07     6.5823     94.111      2.156   2.570689    -0.0654      6.217   217.8154 1.9726e+02     1.2764     -0.651     -0.944    34.6027   994.1772 0.0000e+00
     -0.664      0.000     6.5772     94.041      2.098   2.502204    -0.0685      6.219   215.8949 2.0230e+02     0.6087     -0.651     -0.944    34.6039   994.1769 0.0000e+00
     -0.664      0.000     6.5723     93.974      2.072   2.470815    -0.0827      6.221   211.4556 1.9236e+02    -0.5429     -0.650     -0.943    34.6048   994.1766 0.0000e+00
     -0.664      0.000     6.5688     93.924      2.157   2.571335    -0.0817      6.226   184.8766 2.2571e+02    -1.0462     -0.651     -0.944    34.6058   994.1762 0.0000e+00
     -0.664      0.002     6.5683     93.892      3.337   3.971033    -0.0390      6.300   141.8073 2.9931e+02    -0.3639     -0.651     -0.945    34.6079   994.1754 0.0000e+00
     -0.664      0.010     6.5896     93.910      8.578  10.142562     0.3121      6.563   121.7648 2.9402e+02     7.6408     -0.650     -0.943    34.6092   994.1751 0.0000e+00
     -0.664      0.033     6.6706     94.038     17.498  20.455902     0.9391      6.983   121.1623 2.2139e+02    22.3933     -0.652     -0.945    34.6121   994.1740 0.0000e+00
     -0.663      0.069     6.8114     94.267     24.098  27.728366     1.2986      7.393   125.3163 1.8965e+02    30.4676     -0.650     -0.943    34.6121   994.1742 0.0000e+00
     -0.657      0.112     6.9623     94.502     26.183  29.580586     1.5301      7.708   132.0677 2.1549e+02    30.7416     -0.651     -0.945    34.6160   994.1725 0.0000e+00
     -0.629      0.153     7.0989     94.717     26.604  29.528097     3.6253      7.924   136.4570 4.4929e+02    24.7565     -0.632     -0.917    34.6088   994.1761 0.0000e+00
     -0.569      0.186     7.2243     94.962     26.945  29.440463     7.4541      8.054   142.0785 9.3669e+02    13.6188     -0.562     -0.815    33.9863   994.3895 0.0000e+00
     -0.493      0.205     7.3291     95.245     27.244  29.408537     9.5459      8.123   148.7566 1.3441e+03     7.5674     -0.480     -0.696    32.6269   994.8400 0.0000e+00
     -0.422      0.209     7.4034     95.496     27.448  29.395289     9.7215      8.151   154.2212 1.5503e+03     7.0407     -0.410     -0.594    31.4347   995.2216 0.0000e+00
     -0.367      0.200     7.4365     95.478     27.595  29.406818     9.5342      8.156   157.0435 1.6529e+03     6.8564     -0.353     -0.512    30.4758   995.5186 0.0000e+00
     -0.327      0.181     7.3635     94.250     27.700  29.420810     7.2987      8.165   156.9830 1.6697e+03     5.1754     -0.318     -0.460    29.5457   995.8001 0.0000e+00
     -0.295      0.162     7.1872     91.795     27.779  29.437424     3.2048      8.183   158.1355 1.6335e+03     2.1510     -0.292     -0.425    28.8794   995.9966 0.0000e+00
     -0.259      0.149     7.0770     90.253     27.864  29.480691     0.9830      8.203   160.3097 1.6029e+03     0.5376     -0.256     -0.372    28.4870   996.1109 0.0000e+00
     -0.219      0.145     7.1077     90.553     27.972  29.563178     0.8007      8.217   161.7610 1.6310e+03     0.4160     -0.214     -0.310    28.2529   996.1783 0.0000e+00
     -0.182      0.146     7.1791     91.419     28.091  29.673315     0.8359      8.213   163.8954 1.6894e+03     0.5171     -0.179     -0.258    28.0803   996.2279 0.0000e+00
     -0.146      0.145     7.2103     91.836     28.141  29.733683     0.9058      8.207   166.7584 1.5961e+03     0.7106     -0.144     -0.208    27.9638   996.2611 0.0000e+00
     -0.109      0.139     7.2006     91.844     28.087  29.722044     0.9266      8.212   169.4463 1.4688e+03     0.8217     -0.109     -0.157    27.8895   996.2822 0.0000e+00
     -0.070      0.125     7.1720     91.744     28.001  29.723011     0.9313      8.224   171.3574 1.6267e+03     0.8444     -0.068     -0.098    27.8261   996.3004 0.0000e+00
     -0.034      0.106     7.1087     91.230     27.985  29.808976     1.0060      8.235   172.6577 1.7005e+03     0.7889     -0.030     -0.044    27.8009   996.3078 0.0000e+00
     -0.004      0.084     6.9662     89.624     28.030  29.936761     1.1188      8.238   173.9826 1.4043e+03     0.6751      0.001      0.002    27.8009   996.3080 0.0000e+00
      0.014      0.060     6.7324     86.757     28.040  29.999161     1.1684      8.228   175.2458 1.2728e+03     0.6159      0.019      0.027    27.8639   996.2902 0.0000e+00
      0.019      0.037     6.4596     83.334     28.000  29.992481     1.1633      8.213   176.0573 1.3448e+03     0.5971      0.020      0.028    28.0611   996.2342 0.0000e+00
      0.021      0.017     6.2216     80.329     27.967  29.982955     1.1007      8.199   176.7392 1.2946e+03     0.5460      0.021      0.030    28.2762   996.1729 0.0000e+00
      0.022      0.005     6.0812     78.561     27.977  30.010918     0.9755      8.185   177.8976 1.3514e+03     0.4565      0.023      0.034    28.4134   996.1335 0.0000e+00
      0.019      0.000     6.0948     78.761     28.030  30.076807     0.8970      8.174   179.4811 1.3889e+03     0.4003      0.020      0.030    28.4970   996.1093 0.0000e+00
      0.015      0.000     6.2720     81.059     28.091  30.145126     0.8885      8.167   180.7420 1.3975e+03     0.4240      0.013      0.020    28.5545   996.0927 0.0000e+00
      0.014      0.000     6.5520     84.684     28.142  30.202453     0.9080      8.162   181.5271 1.5693e+03     0.4484      0.012      0.018    28.6009   996.0792 0.0000e+00
      0.017      0.001     6.8498     88.588     28.180  30.262326     0.9325      8.156   182.3491 1.6459e+03     0.4324      0.018      0.026    28.6321   996.0702 0.0000e+00
      0.020      0.004     7.1063     92.021     28.175  30.298018     0.9421      8.149   183.1091 1.5979e+03     0.4283      0.021      0.031    28.6494   996.0653 0.0000e+00
      0.022      0.006     7.2959     94.592     28.156  30.316814     0.9463      8.143   183.5756 1.4484e+03     0.4308      0.022      0.032    28.6540   996.0640 0.0000e+00
      0.022      0.006     7.4126     96.178     28.176  30.362747     0.9485      8.138   184.2034 1.2859e+03     0.4292      0.021      0.031    28.6410   996.0677 0.0000e+00
      0.023      0.005     7.4590     96.834     28.202  30.409267     0.9344      8.135   184.9354 1.3062e+03     0.4092      0.021      0.031    28.6670   996.0603 0.0000e+00
      0.025      0.003     7.4480     96.738     28.211  30.435149     0.9062      8.133   185.2849 1.4712e+03     0.3532      0.025      0.036    28.7643   996.0319 0.0000e+00
      0.028      0.003     7.4035     96.193     28.188  30.421908     0.8844      8.129   185.4178 1.5344e+03     0.3097      0.028      0.041    28.8438   996.0088 0.0000e+00
      0.028      0.004     7.3505     95.513     28.143  30.376091     0.8789      8.119   185.7678 1.4259e+03     0.3417      0.029      0.042    28.8767   995.9992 0.0000e+00
      0.027      0.005     7.3028     94.887     28.157  30.388794     0.8834      8.106   186.2466 1.3195e+03     0.4117      0.027      0.039    28.9072   995.9903 0.0000e+00
      0.026      0.008     7.2653     94.395     28.214  30.448586     0.8859      8.098   186.7334 1.3336e+03     0.4022      0.025      0.037    28.9394   995.9810 0.0000e+00
      0.027      0.010     7.2524     94.245     28.223  30.464508     0.8832      8.093   187.5236 1.4167e+03     0.3588      0.024      0.035    28.9586   995.9754 0.0000e+00
      0.032      0.011     7.2769     94.675     28.179  30.454412     0.8852      8.088   188.4016 1.3710e+03     0.3788      0.029      0.043    28.9645   995.9735 0.0000e+00
      0.040      0.011     7.3220     95.514     28.100  30.453481     0.9103      8.082   188.9169 1.2920e+03     0.4144      0.040      0.058    28.9531   995.9769 0.0000e+00
      0.046      0.009     7.3661     96.363     28.015  30.453392     0.9447      8.077   188.9368 1.3409e+03     0.4286      0.047      0.068    28.9519   995.9774 0.0000e+00
      0.047      0.006     7.4037     97.014     27.966  30.453490     0.9541      8.073   188.7276 1.4119e+03     0.4186      0.047      0.069    28.9475   995.9786 0.0000e+00
      0.045      0.001     7.4317     97.434     27.951  30.454755     0.9455      8.070   188.7110 1.4268e+03     0.3921      0.044      0.064    28.9839   995.9680 0.0000e+00
      0.041     -0.002     7.4481     97.659     27.961  30.468701     0.9278      8.066   188.6499 1.4081e+03     0.4028      0.040      0.058    29.1795   995.9105 0.0000e+00
      0.040     -0.003     7.4554     97.768     27.981  30.495225     0.9039      8.063   188.9348 1.4062e+03     0.4170      0.038      0.055    29.3828   995.8504 0.0000e+00
      0.040     -0.002     7.4556     97.793     27.998  30.521654     0.8914      8.058   190.0910 1.3957e+03     0.4001      0.039      0.057    29.4613   995.8271 0.0000e+00
      0.041     -0.001     7.4514     97.753     28.005  30.534450     0.8894      8.048   191.0132 1.3687e+03     0.3956      0.040      0.058    29.4801   995.8215 0.0000e+00
      0.041     -0.002     7.4479     97.711     27.994  30.523036     0.9053      8.035   191.2232 1.3667e+03     0.4601      0.040      0.058    29.4747   995.8230 0.0000e+00
      0.042     -0.006     7.4452     97.704     27.974  30.510553     0.9366      8.026   191.5981 1.3886e+03     0.5911      0.040      0.058    29.4809   995.8213 0.0000e+00
