* Sea-Bird SBE19plus  Data File:
* FileName = C:\DATA\090718_BVR_0009.hex
* Software version 2.6.3.104 SB_Terminal.dll
* Temperature SN = 7809
* Conductivity SN = 7809
* System UpLoad Time = Sep 07 2018 18:59:36
* <ApplicationData>
* <Seaterm232>
* <SoftwareVersion>2.6.3.104</SoftwareVersion>
* <BuildDate>30-Jun-2017</BuildDate>
* </Seaterm232>
* </ApplicationData>
* cast   9 07 Sep 2018 19:22:22 samples 8378 to 9173, avg = 1, stop = mag switch
# nquan = 15
# nvalues = 734                         
# units = specified
# name 0 = depFM: Depth [fresh water, m]
# name 1 = dz/dtM: Descent Rate [m/s]
# name 2 = sbeox0Mg/L: Oxygen, SBE 43 [mg/l]
# name 3 = sbeox0PS: Oxygen, SBE 43 [% saturation]
# name 4 = specc: Specific Conductance [uS/cm]
# name 5 = c0uS/cm: Conductivity [uS/cm]
# name 6 = flECO-AFL: Fluorescence, WET Labs ECO-AFL/FL [mg/m^3]
# name 7 = ph: pH
# name 8 = orp: Oxidation Reduction Potential [mV]
# name 9 = par/sat/log: PAR/Logarithmic, Satlantic
# name 10 = turbWETntu0: Turbidity, WET Labs ECO [NTU]
# name 11 = prdM: Pressure, Strain Gauge [db]
# name 12 = prdE: Pressure, Strain Gauge [psi]
# name 13 = tv290C: Temperature [ITS-90, deg C]
# name 14 = flag:  0.000e+00
# span 0 =     -0.529,      5.296       
# span 1 =     -0.088,      0.228       
# span 2 =     0.0830,    10.1915       
# span 3 =      0.780,    125.140       
# span 4 =      0.301,     77.676       
# span 5 =   0.342012,  59.014992       
# span 6 =    -0.3661,    24.7866       
# span 7 =      5.220,      8.423       
# span 8 = -1240.7455,   402.9748       
# span 9 = 5.7267e-01, 9.3790e+02       
# span 10 =    -0.4558,    11.0916      
# span 11 =     -0.519,      5.194      
# span 12 =     -0.752,      7.534      
# span 13 =    12.4849,    31.9090      
# span 14 = 0.0000e+00, 0.0000e+00      
# interval = seconds: 0.25
# start_time = Sep 07 2018 19:22:22 [Instrument's time stamp, header]
# bad_flag = -9.990e-29
# <Sensors count="9" >
#   <sensor Channel="1" >
#     <!-- Count, Temperature -->
#     <TemperatureSensor SensorID="58" >
#       <SerialNumber>7809</SerialNumber>
#       <CalibrationDate>09-Mar-18</CalibrationDate>
#       <A0>1.21093245e-003</A0>
#       <A1>2.84356597e-004</A1>
#       <A2>-1.94507398e-006</A2>
#       <A3>2.12806664e-007</A3>
#       <Slope>1.00000000</Slope>
#       <Offset>0.0000</Offset>
#     </TemperatureSensor>
#   </sensor>
#   <sensor Channel="2" >
#     <!-- Frequency 0, Conductivity -->
#     <ConductivitySensor SensorID="3" >
#       <SerialNumber>7809</SerialNumber>
#       <CalibrationDate>09-Mar-18</CalibrationDate>
#       <UseG_J>1</UseG_J>
#       <!-- Cell const and series R are applicable only for wide range sensors. -->
#       <SeriesR>0.0000</SeriesR>
#       <CellConst>2000.0000</CellConst>
#       <ConductivityType>0</ConductivityType>
#       <Coefficients equation="0" >
#         <A>0.00000000e+000</A>
#         <B>0.00000000e+000</B>
#         <C>0.00000000e+000</C>
#         <D>0.00000000e+000</D>
#         <M>0.0</M>
#         <CPcor>-9.57000000e-008</CPcor>
#       </Coefficients>
#       <Coefficients equation="1" >
#         <G>-1.00672082e+000</G>
#         <H>1.26906489e-001</H>
#         <I>-1.40584351e-004</I>
#         <J>2.47837121e-005</J>
#         <CPcor>-9.57000000e-008</CPcor>
#         <CTcor>3.2500e-006</CTcor>
#         <!-- WBOTC not applicable unless ConductivityType = 1. -->
#         <WBOTC>0.00000000e+000</WBOTC>
#       </Coefficients>
#       <Slope>1.00000000</Slope>
#       <Offset>0.00000</Offset>
#     </ConductivitySensor>
#   </sensor>
#   <sensor Channel="3" >
#     <!-- Count, Pressure, Strain Gauge -->
#     <PressureSensor SensorID="46" >
#       <SerialNumber>7809</SerialNumber>
#       <CalibrationDate>07-Mar-18</CalibrationDate>
#       <PA0>-4.08176359e-002</PA0>
#       <PA1>4.85188419e-004</PA1>
#       <PA2>-3.51168169e-012</PA2>
#       <PTEMPA0>-5.37806900e+001</PTEMPA0>
#       <PTEMPA1>5.36620721e+001</PTEMPA1>
#       <PTEMPA2>4.87214332e-002</PTEMPA2>
#       <PTCA0>5.25213435e+005</PTCA0>
#       <PTCA1>1.79532409e+000</PTCA1>
#       <PTCA2>-2.84353509e-001</PTCA2>
#       <PTCB0>2.51668750e+001</PTCB0>
#       <PTCB1>3.75000000e-004</PTCB1>
#       <PTCB2>0.00000000e+000</PTCB2>
#       <Offset>0.000000</Offset>
#     </PressureSensor>
#   </sensor>
#   <sensor Channel="4" >
#     <!-- A/D voltage 0, pH -->
#     <pH_Sensor SensorID="43" >
#       <SerialNumber>0363</SerialNumber>
#       <CalibrationDate>16-Mar-18</CalibrationDate>
#       <Slope>4.6194</Slope>
#       <Offset>2.5947</Offset>
#     </pH_Sensor>
#   </sensor>
#   <sensor Channel="5" >
#     <!-- A/D voltage 1, Oxidation Reduction Potential -->
#     <OxidationReductionPotentialSensor SensorID="41" >
#       <SerialNumber>0363</SerialNumber>
#       <CalibrationDate>16-Mar-18</CalibrationDate>
#       <B>2.499480</B>
#       <M>-0.496195</M>
#       <Offset>0.0</Offset>
#     </OxidationReductionPotentialSensor>
#   </sensor>
#   <sensor Channel="6" >
#     <!-- A/D voltage 2, Oxygen, SBE 43 -->
#     <OxygenSensor SensorID="38" >
#       <SerialNumber>0434</SerialNumber>
#       <CalibrationDate>13-Mar-18</CalibrationDate>
#       <Use2007Equation>1</Use2007Equation>
#       <CalibrationCoefficients equation="0" >
#         <!-- Coefficients for Owens-Millard equation. -->
#         <Boc>0.0000</Boc>
#         <Soc>0.0000e+000</Soc>
#         <offset>0.0000</offset>
#         <Pcor>0.00e+000</Pcor>
#         <Tcor>0.0000</Tcor>
#         <Tau>0.0</Tau>
#       </CalibrationCoefficients>
#       <CalibrationCoefficients equation="1" >
#         <!-- Coefficients for Sea-Bird equation - SBE calibration in 2007 and later. -->
#         <Soc>4.5718e-001</Soc>
#         <offset>-0.6113</offset>
#         <A>-4.0649e-003</A>
#         <B> 2.0945e-004</B>
#         <C>-3.3182e-006</C>
#         <D0> 2.5826e+000</D0>
#         <D1> 1.92634e-004</D1>
#         <D2>-4.64803e-002</D2>
#         <E> 3.6000e-002</E>
#         <Tau20> 1.2200</Tau20>
#         <H1>-3.3000e-002</H1>
#         <H2> 5.0000e+003</H2>
#         <H3> 1.4500e+003</H3>
#       </CalibrationCoefficients>
#     </OxygenSensor>
#   </sensor>
#   <sensor Channel="7" >
#     <!-- A/D voltage 3, PAR/Logarithmic, Satlantic -->
#     <PARLog_SatlanticSensor SensorID="76" >
#       <SerialNumber>1122</SerialNumber>
#       <CalibrationDate>22-Jun-2017</CalibrationDate>
#       <a0>9.6090e-001</a0>
#       <a1>8.0780e-001</a1>
#       <Im>1.3589e+000</Im>
#       <Multiplier>1.0000e+000</Multiplier>
#     </PARLog_SatlanticSensor>
#   </sensor>
#   <sensor Channel="8" >
#     <!-- A/D voltage 4, Fluorometer, WET Labs ECO-AFL/FL -->
#     <FluoroWetlabECO_AFL_FL_Sensor SensorID="20" >
#       <SerialNumber>FLNTURT-2496</SerialNumber>
#       <CalibrationDate>25-Jan-2017</CalibrationDate>
#       <ScaleFactor>5.30000000e+001</ScaleFactor>
#       <!-- Dark output -->
#       <Vblank>0.0560</Vblank>
#     </FluoroWetlabECO_AFL_FL_Sensor>
#   </sensor>
#   <sensor Channel="9" >
#     <!-- A/D voltage 5, Turbidity Meter, WET Labs, ECO-NTU -->
#     <TurbidityMeter SensorID="67" >
#       <SerialNumber>FLNTURT-2496</SerialNumber>
#       <CalibrationDate>25-Jan-2017</CalibrationDate>
#       <ScaleFactor>176.000000</ScaleFactor>
#       <!-- Dark output -->
#       <DarkVoltage>0.072000</DarkVoltage>
#     </TurbidityMeter>
#   </sensor>
# </Sensors>
# datcnv_date = Sep 07 2018 19:05:12, 7.26.7.114 [datcnv_vars = 14]
# datcnv_in = C:\DATA\090718_BVR_0009.hex C:\DATA\SBE19plusV2_7809.xmlcon
# datcnv_skipover = 0
# datcnv_ox_hysteresis_correction = yes
# datcnv_ox_tau_correction = yes
# filter_date = Sep 07 2018 19:07:12, 7.26.7.114
# filter_in = C:\DATA\090718_BVR_0009.cnv
# filter_low_pass_tc_A = 0.030
# filter_low_pass_tc_B = 0.150
# filter_low_pass_A_vars = prdM prdE tv290C
# filter_low_pass_B_vars = depFM dz/dtM sbeox0Mg/L sbeox0PS specc c0uS/cm flECO-AFL ph orp par/sat/log turbWETntu0
# alignctd_date = Sep 07 2018 19:07:51, 7.26.7.114
# alignctd_in = C:\DATA\090718_BVR_0009.cnv
# alignctd_adv = dz/dtM 1.000, sbeox0Mg/L 1.000, sbeox0PS 1.000, specc 1.000, c0uS/cm 1.000, flECO-AFL 1.000, ph 1.000, orp 1.000, turbWETntu0 1.000                                                                                 
# file_type = ascii
*END*
     -0.528 3.8890e-39     7.3089     99.901      0.480   0.545513    -0.1671      5.230  -783.0216 3.8067e+02    -0.2265     -0.518     -0.751    31.9090 0.0000e+00
     -0.529 4.2779e-38     7.3115     99.937      0.495   0.562572    -0.1583      5.228  -808.1216 4.6737e+02    -0.2306     -0.518     -0.752    31.9085 0.0000e+00
     -0.529 4.7056e-37     7.3127     99.953      0.488   0.554892    -0.1645      5.227  -832.0967 5.6150e+02    -0.2611     -0.518     -0.752    31.9082 0.0000e+00
     -0.528 5.1762e-36     7.3136     99.964      0.510   0.579479    -0.1680      5.226  -854.2762 5.0707e+02    -0.2909     -0.518     -0.751    31.9080 0.0000e+00
     -0.528 5.6938e-35     7.3148     99.979      0.533   0.606218    -0.1644      5.226  -879.0905 4.3554e+02    -0.2853     -0.518     -0.751    31.9077 0.0000e+00
     -0.528 6.2632e-34     7.3148     99.979      0.549   0.624552    -0.1670      5.226  -907.0465 4.1021e+02    -0.2851     -0.518     -0.751    31.9071 0.0000e+00
     -0.528 6.8895e-33     7.3147     99.977      0.593   0.674333    -0.1725      5.224  -938.2153 3.8758e+02    -0.2889     -0.518     -0.751    31.9067 0.0000e+00
     -0.529 7.5785e-32     7.3147     99.977      0.616   0.700841    -0.1758      5.222  -964.3625 3.8686e+02    -0.2698     -0.518     -0.752    31.9065 0.0000e+00
     -0.529 8.3363e-31     7.3142     99.971      0.608   0.691415    -0.1793      5.222  -988.3030 3.9293e+02    -0.2668     -0.519     -0.752    31.9064 0.0000e+00
     -0.528 9.1700e-30     7.3139     99.966      0.604   0.687188    -0.1770      5.222 -1019.6342 3.9438e+02    -0.2841     -0.518     -0.751    31.9061 0.0000e+00
     -0.528 1.0087e-28     7.3135     99.961      0.571   0.649731    -0.1673      5.222 -1044.9738 3.8844e+02    -0.2652     -0.518     -0.752    31.9055 0.0000e+00
     -0.528 1.1096e-27     7.3122     99.941      0.433   0.492161    -0.1629      5.222 -1070.6354 3.9701e+02    -0.1914     -0.518     -0.751    31.9053 0.0000e+00
     -0.528 1.2205e-26     7.3106     99.918      0.323   0.367261    -0.1690      5.222 -1104.0535 5.1033e+02    -0.0931     -0.518     -0.752    31.9052 0.0000e+00
     -0.528 1.3426e-25     7.3110     99.923      0.303   0.344355    -0.1678      5.222 -1133.0072 7.0915e+02    -0.0231     -0.518     -0.752    31.9046 0.0000e+00
     -0.528 1.4768e-24     7.3124     99.943      0.301   0.342012    -0.1579      5.222 -1154.3343 8.2625e+02    -0.0168     -0.518     -0.752    31.9045 0.0000e+00
     -0.528 1.6245e-23     7.3122     99.940      0.409   0.465751    -0.1589      5.222 -1171.4274 8.5151e+02    -0.0468     -0.518     -0.752    31.9044 0.0000e+00
     -0.528 1.7870e-22     7.3107     99.918      0.559   0.635698    -0.1712      5.222 -1196.7665 8.5977e+02    -0.0799     -0.518     -0.752    31.9038 0.0000e+00
     -0.528 1.9657e-21     7.3097     99.903      0.602   0.684782    -0.1781      5.222 -1225.9925 8.5535e+02    -0.1125     -0.517     -0.751    31.9033 0.0000e+00
     -0.528 2.1622e-20     7.3103     99.909      0.596   0.678755    -0.1686      5.222 -1239.4043 8.2884e+02    -0.1058     -0.518     -0.751    31.9032 0.0000e+00
     -0.528 2.3785e-19     7.3120     99.931      0.606   0.689650    -0.1569      5.221 -1240.6235 7.8258e+02    -0.1206     -0.518     -0.751    31.9029 0.0000e+00
     -0.528 2.6163e-18     7.3136     99.952      0.606   0.689695    -0.1567      5.221 -1240.7344 6.7660e+02    -0.2304     -0.518     -0.751    31.9024 0.0000e+00
     -0.528 2.8779e-17     7.3136     99.951      0.597   0.679304    -0.1567      5.222 -1240.7445 5.5480e+02    -0.3043     -0.518     -0.751    31.9020 0.0000e+00
     -0.528 3.1657e-16     7.3135     99.949      0.607   0.690833    -0.1566      5.223 -1240.7454 5.0557e+02    -0.2818     -0.518     -0.751    31.9010 0.0000e+00
     -0.528 3.4823e-15     7.3149     99.967      0.617   0.702267    -0.1641      5.223 -1240.7455 5.3528e+02    -0.2636     -0.518     -0.751    31.9002 0.0000e+00
     -0.528 3.8305e-14     7.3145     99.961      0.607   0.690728    -0.1746      5.223 -1240.7455 6.8177e+02    -0.2972     -0.518     -0.751    31.8995 0.0000e+00
     -0.528 4.2136e-13     7.3129     99.939      0.596   0.678139    -0.1823      5.222 -1240.7455 8.1696e+02    -0.3221     -0.517     -0.750    31.8986 0.0000e+00
     -0.528 4.6349e-12     7.3124     99.931      0.595   0.676872    -0.1843      5.220 -1240.7455 8.3267e+02    -0.2896     -0.518     -0.751    31.8981 0.0000e+00
     -0.528 5.0984e-11     7.3131     99.938      0.594   0.675417    -0.1800      5.221 -1240.7455 7.5372e+02    -0.2707     -0.518     -0.751    31.8982 0.0000e+00
     -0.528 5.6083e-10     7.3138     99.946      0.581   0.660544    -0.1760      5.226 -1240.7455 5.8425e+02    -0.2772     -0.517     -0.749    31.8981 0.0000e+00
     -0.528 6.1691e-09     7.3141     99.948      0.548   0.623860    -0.1740      5.230 -1240.7451 4.6616e+02    -0.2455     -0.518     -0.750    31.8976 0.0000e+00
     -0.528 6.7860e-08     7.3147     99.955      0.538   0.612325    -0.1732      5.234 -1240.7415 4.2071e+02    -0.2233     -0.517     -0.751    31.8962 0.0000e+00
     -0.528 7.4646e-07     7.3142     99.945      0.569   0.647900    -0.1758      5.235 -1240.7011 3.2456e+02    -0.2224     -0.517     -0.750    31.8959 0.0000e+00
     -0.528      0.000     7.3146     99.949      0.592   0.673548    -0.1683      5.235 -1240.2569 2.5306e+02    -0.2352     -0.517     -0.750    31.8940 0.0000e+00
     -0.528      0.000     7.3159     99.964      0.588   0.668792    -0.1571      5.234 -1235.3709 2.5093e+02    -0.2867     -0.517     -0.750    31.8950 0.0000e+00
     -0.527      0.001     7.3163     99.958      0.632   0.717207    -0.1594      5.229 -1181.6248 2.5492e+02    -0.3253     -0.517     -0.749    31.8904 0.0000e+00
     -0.527      0.006     7.3232     99.948      1.231   1.385746    -0.1674      5.252  -590.4178 3.7816e+02    -0.3357     -0.517     -0.749    31.8935 0.0000e+00
     -0.527      0.020     7.3653     99.963      6.769   7.547235    -0.2175      5.432   274.2802 6.2041e+02    -0.3827     -0.517     -0.750    31.8848 0.0000e+00
     -0.527      0.047     7.4590    100.009     19.698  21.793975    -0.3068      5.841   402.9748 7.7171e+02    -0.4347     -0.517     -0.748    31.8962 0.0000e+00
     -0.524      0.086     7.5677    100.073     31.486  34.531939    -0.3548      6.319   186.5319 8.2023e+02    -0.4458     -0.518     -0.750    31.8739 0.0000e+00
     -0.508      0.131     7.6597    100.164     35.824  38.912271    -0.3661      6.677   160.5144 8.5223e+02    -0.4558     -0.509     -0.739    31.9054 0.0000e+00
     -0.466      0.171     7.7418    100.306     36.484  39.254854    -0.3424      6.889   155.1654 8.8263e+02    -0.2198     -0.467     -0.677    31.7015 0.0000e+00
     -0.401      0.204     7.8234    100.534     36.794  39.245268    -0.0031      7.000   153.5200 9.1415e+02     2.7431     -0.398     -0.577    30.7947 0.0000e+00
     -0.325      0.224     7.9030    100.897     37.046  39.240546     0.6117      7.051   153.9566 9.3373e+02     8.1765     -0.315     -0.459    29.8753 0.0000e+00
     -0.256      0.228     7.9753    101.379     37.237  39.260856     0.9424      7.077   155.0231 9.3790e+02    11.0916     -0.246     -0.356    29.2994 0.0000e+00
     -0.201      0.218     8.0384    101.905     37.382  39.299948     0.9722      7.095   157.3808 9.3433e+02    11.0725     -0.196     -0.284    28.7821 0.0000e+00
     -0.151      0.198     8.0959    102.452     37.483  39.331834     1.0457      7.121   161.3849 9.3209e+02     8.6173     -0.147     -0.214    28.2926 0.0000e+00
     -0.104      0.178     8.1482    102.982     37.531  39.328619     1.1970      7.159   165.2349 9.3427e+02     4.1416     -0.100     -0.145    27.9060 0.0000e+00
     -0.062      0.165     8.1877    103.391     37.562  39.324521     1.2937      7.205   166.6751 9.3630e+02     1.6956     -0.059     -0.085    27.6802 0.0000e+00
     -0.026      0.159     8.2108    103.635     37.602  39.345763     1.3055      7.257   165.3766 9.2756e+02     1.4748     -0.024     -0.035    27.5425 0.0000e+00
      0.008      0.155     8.2210    103.736     37.660  39.394827     1.3302      7.305   163.2151 7.9377e+02     1.5025      0.004      0.006    27.4519 0.0000e+00
      0.047      0.149     8.2224    103.733     37.743  39.472988     1.3896      7.341   163.6850 5.6798e+02     1.6039      0.043      0.063    27.3822 0.0000e+00
      0.091      0.134     8.2160    103.672     37.788  39.528391     1.4271      7.373   166.0671 5.2644e+02     1.6623      0.091      0.133    27.3294 0.0000e+00
      0.132      0.106     8.1779    103.291     37.715  39.492916     1.4339      7.410   167.2382 5.7360e+02     1.6589      0.130      0.189    27.3092 0.0000e+00
      0.168      0.066     8.0821    102.226     37.532  39.361794     1.4624      7.451   168.4658 5.0777e+02     1.5939      0.168      0.243    27.2979 0.0000e+00
      0.191      0.021     7.9673    100.854     37.359  39.213774     1.5147      7.488   170.3274 5.1161e+02     1.4867      0.200      0.289    27.2804 0.0000e+00
      0.185     -0.022     7.8869     99.809     37.324  39.164517     1.5429      7.518   171.9366 6.2601e+02     1.4617      0.193      0.280    27.2787 0.0000e+00
      0.153     -0.057     7.8257     98.953     37.462  39.274471     1.5461      7.539   173.8121 7.2356e+02     1.4744      0.150      0.217    27.3348 0.0000e+00
      0.118     -0.080     7.7430     97.833     37.793  39.590181     1.5171      7.555   175.8823 7.8554e+02     1.4574      0.110      0.160    27.4497 0.0000e+00
      0.091     -0.088     7.6235     96.282     38.319  40.122677     1.4585      7.567   177.6943 7.7364e+02     1.4392      0.087      0.127    27.5046 0.0000e+00
      0.071     -0.080     7.4737     94.383     38.746  40.566482     1.4248      7.577   179.2010 7.2186e+02     1.4366      0.069      0.100    27.4674 0.0000e+00
      0.054     -0.064     7.3227     92.494     38.804  40.635767     1.4309      7.584   180.7636 7.1088e+02     1.4567      0.052      0.076    27.4095 0.0000e+00
      0.038     -0.048     7.1964     90.917     38.863  40.706283     1.4593      7.589   181.3588 7.2365e+02     1.4689      0.037      0.053    27.3640 0.0000e+00
      0.026     -0.035     7.0884     89.562     39.358  41.228473     1.4833      7.594   180.8912 7.3260e+02     1.4629      0.025      0.034    27.3394 0.0000e+00
      0.020     -0.024     6.9823     88.231     40.143  42.057056     1.4922      7.599   182.3371 7.3786e+02     1.4453      0.019      0.027    27.3372 0.0000e+00
      0.019     -0.014     6.8756     86.904     40.885  42.845638     1.4925      7.602   185.1603 7.3816e+02     1.4381      0.019      0.027    27.3543 0.0000e+00
      0.019     -0.007     6.7735     85.637     41.516  43.519348     1.4865      7.605   186.1176 7.3811e+02     1.4671      0.019      0.027    27.3693 0.0000e+00
      0.020     -0.004     6.6748     84.410     42.182  44.229628     1.4932      7.610   183.8453 7.3985e+02     1.4906      0.019      0.027    27.3695 0.0000e+00
      0.020     -0.004     6.5750     83.167     42.860  44.951773     1.5098      7.617   180.8312 7.4096e+02     1.4789      0.020      0.029    27.3743 0.0000e+00
