* Sea-Bird SBE19plus  Data File:
* FileName = C:\DATA\090718_BVR_0008.hex
* Software version 2.6.3.104 SB_Terminal.dll
* Temperature SN = 7809
* Conductivity SN = 7809
* System UpLoad Time = Sep 07 2018 18:59:14
* <ApplicationData>
* <Seaterm232>
* <SoftwareVersion>2.6.3.104</SoftwareVersion>
* <BuildDate>30-Jun-2017</BuildDate>
* </Seaterm232>
* </ApplicationData>
* cast   8 07 Sep 2018 17:29:21 samples 7605 to 8377, avg = 1, stop = mag switch
# nquan = 15
# nvalues = 623                         
# units = specified
# name 0 = depFM: Depth [fresh water, m]
# name 1 = dz/dtM: Descent Rate [m/s]
# name 2 = sbeox0Mg/L: Oxygen, SBE 43 [mg/l]
# name 3 = sbeox0PS: Oxygen, SBE 43 [% saturation]
# name 4 = specc: Specific Conductance [uS/cm]
# name 5 = c0uS/cm: Conductivity [uS/cm]
# name 6 = flECO-AFL: Fluorescence, WET Labs ECO-AFL/FL [mg/m^3]
# name 7 = ph: pH
# name 8 = orp: Oxidation Reduction Potential [mV]
# name 9 = par/sat/log: PAR/Logarithmic, Satlantic
# name 10 = turbWETntu0: Turbidity, WET Labs ECO [NTU]
# name 11 = prdM: Pressure, Strain Gauge [db]
# name 12 = prdE: Pressure, Strain Gauge [psi]
# name 13 = tv290C: Temperature [ITS-90, deg C]
# name 14 = flag:  0.000e+00
# span 0 =     -0.593,      9.704       
# span 1 =     -0.160,      0.259       
# span 2 =    -0.0685,     8.7920       
# span 3 =     -0.654,    112.542       
# span 4 =     11.972,    164.312       
# span 5 =  13.344844, 108.753553       
# span 6 =    -2.4584,     8.7285       
# span 7 =      6.509,      7.947       
# span 8 =    -2.2880,   217.1721       
# span 9 = 1.2527e-01, 2.7603e+03       
# span 10 =     0.1469,    21.8534      
# span 11 =     -0.582,      9.517      
# span 12 =     -0.844,     13.803      
# span 13 =     8.0876,    30.7559      
# span 14 = 0.0000e+00, 0.0000e+00      
# interval = seconds: 0.25
# start_time = Sep 07 2018 17:29:21 [Instrument's time stamp, header]
# bad_flag = -9.990e-29
# <Sensors count="9" >
#   <sensor Channel="1" >
#     <!-- Count, Temperature -->
#     <TemperatureSensor SensorID="58" >
#       <SerialNumber>7809</SerialNumber>
#       <CalibrationDate>09-Mar-18</CalibrationDate>
#       <A0>1.21093245e-003</A0>
#       <A1>2.84356597e-004</A1>
#       <A2>-1.94507398e-006</A2>
#       <A3>2.12806664e-007</A3>
#       <Slope>1.00000000</Slope>
#       <Offset>0.0000</Offset>
#     </TemperatureSensor>
#   </sensor>
#   <sensor Channel="2" >
#     <!-- Frequency 0, Conductivity -->
#     <ConductivitySensor SensorID="3" >
#       <SerialNumber>7809</SerialNumber>
#       <CalibrationDate>09-Mar-18</CalibrationDate>
#       <UseG_J>1</UseG_J>
#       <!-- Cell const and series R are applicable only for wide range sensors. -->
#       <SeriesR>0.0000</SeriesR>
#       <CellConst>2000.0000</CellConst>
#       <ConductivityType>0</ConductivityType>
#       <Coefficients equation="0" >
#         <A>0.00000000e+000</A>
#         <B>0.00000000e+000</B>
#         <C>0.00000000e+000</C>
#         <D>0.00000000e+000</D>
#         <M>0.0</M>
#         <CPcor>-9.57000000e-008</CPcor>
#       </Coefficients>
#       <Coefficients equation="1" >
#         <G>-1.00672082e+000</G>
#         <H>1.26906489e-001</H>
#         <I>-1.40584351e-004</I>
#         <J>2.47837121e-005</J>
#         <CPcor>-9.57000000e-008</CPcor>
#         <CTcor>3.2500e-006</CTcor>
#         <!-- WBOTC not applicable unless ConductivityType = 1. -->
#         <WBOTC>0.00000000e+000</WBOTC>
#       </Coefficients>
#       <Slope>1.00000000</Slope>
#       <Offset>0.00000</Offset>
#     </ConductivitySensor>
#   </sensor>
#   <sensor Channel="3" >
#     <!-- Count, Pressure, Strain Gauge -->
#     <PressureSensor SensorID="46" >
#       <SerialNumber>7809</SerialNumber>
#       <CalibrationDate>07-Mar-18</CalibrationDate>
#       <PA0>-4.08176359e-002</PA0>
#       <PA1>4.85188419e-004</PA1>
#       <PA2>-3.51168169e-012</PA2>
#       <PTEMPA0>-5.37806900e+001</PTEMPA0>
#       <PTEMPA1>5.36620721e+001</PTEMPA1>
#       <PTEMPA2>4.87214332e-002</PTEMPA2>
#       <PTCA0>5.25213435e+005</PTCA0>
#       <PTCA1>1.79532409e+000</PTCA1>
#       <PTCA2>-2.84353509e-001</PTCA2>
#       <PTCB0>2.51668750e+001</PTCB0>
#       <PTCB1>3.75000000e-004</PTCB1>
#       <PTCB2>0.00000000e+000</PTCB2>
#       <Offset>0.000000</Offset>
#     </PressureSensor>
#   </sensor>
#   <sensor Channel="4" >
#     <!-- A/D voltage 0, pH -->
#     <pH_Sensor SensorID="43" >
#       <SerialNumber>0363</SerialNumber>
#       <CalibrationDate>16-Mar-18</CalibrationDate>
#       <Slope>4.6194</Slope>
#       <Offset>2.5947</Offset>
#     </pH_Sensor>
#   </sensor>
#   <sensor Channel="5" >
#     <!-- A/D voltage 1, Oxidation Reduction Potential -->
#     <OxidationReductionPotentialSensor SensorID="41" >
#       <SerialNumber>0363</SerialNumber>
#       <CalibrationDate>16-Mar-18</CalibrationDate>
#       <B>2.499480</B>
#       <M>-0.496195</M>
#       <Offset>0.0</Offset>
#     </OxidationReductionPotentialSensor>
#   </sensor>
#   <sensor Channel="6" >
#     <!-- A/D voltage 2, Oxygen, SBE 43 -->
#     <OxygenSensor SensorID="38" >
#       <SerialNumber>0434</SerialNumber>
#       <CalibrationDate>13-Mar-18</CalibrationDate>
#       <Use2007Equation>1</Use2007Equation>
#       <CalibrationCoefficients equation="0" >
#         <!-- Coefficients for Owens-Millard equation. -->
#         <Boc>0.0000</Boc>
#         <Soc>0.0000e+000</Soc>
#         <offset>0.0000</offset>
#         <Pcor>0.00e+000</Pcor>
#         <Tcor>0.0000</Tcor>
#         <Tau>0.0</Tau>
#       </CalibrationCoefficients>
#       <CalibrationCoefficients equation="1" >
#         <!-- Coefficients for Sea-Bird equation - SBE calibration in 2007 and later. -->
#         <Soc>4.5718e-001</Soc>
#         <offset>-0.6113</offset>
#         <A>-4.0649e-003</A>
#         <B> 2.0945e-004</B>
#         <C>-3.3182e-006</C>
#         <D0> 2.5826e+000</D0>
#         <D1> 1.92634e-004</D1>
#         <D2>-4.64803e-002</D2>
#         <E> 3.6000e-002</E>
#         <Tau20> 1.2200</Tau20>
#         <H1>-3.3000e-002</H1>
#         <H2> 5.0000e+003</H2>
#         <H3> 1.4500e+003</H3>
#       </CalibrationCoefficients>
#     </OxygenSensor>
#   </sensor>
#   <sensor Channel="7" >
#     <!-- A/D voltage 3, PAR/Logarithmic, Satlantic -->
#     <PARLog_SatlanticSensor SensorID="76" >
#       <SerialNumber>1122</SerialNumber>
#       <CalibrationDate>22-Jun-2017</CalibrationDate>
#       <a0>9.6090e-001</a0>
#       <a1>8.0780e-001</a1>
#       <Im>1.3589e+000</Im>
#       <Multiplier>1.0000e+000</Multiplier>
#     </PARLog_SatlanticSensor>
#   </sensor>
#   <sensor Channel="8" >
#     <!-- A/D voltage 4, Fluorometer, WET Labs ECO-AFL/FL -->
#     <FluoroWetlabECO_AFL_FL_Sensor SensorID="20" >
#       <SerialNumber>FLNTURT-2496</SerialNumber>
#       <CalibrationDate>25-Jan-2017</CalibrationDate>
#       <ScaleFactor>5.30000000e+001</ScaleFactor>
#       <!-- Dark output -->
#       <Vblank>0.0560</Vblank>
#     </FluoroWetlabECO_AFL_FL_Sensor>
#   </sensor>
#   <sensor Channel="9" >
#     <!-- A/D voltage 5, Turbidity Meter, WET Labs, ECO-NTU -->
#     <TurbidityMeter SensorID="67" >
#       <SerialNumber>FLNTURT-2496</SerialNumber>
#       <CalibrationDate>25-Jan-2017</CalibrationDate>
#       <ScaleFactor>176.000000</ScaleFactor>
#       <!-- Dark output -->
#       <DarkVoltage>0.072000</DarkVoltage>
#     </TurbidityMeter>
#   </sensor>
# </Sensors>
# datcnv_date = Sep 07 2018 19:05:12, 7.26.7.114 [datcnv_vars = 14]
# datcnv_in = C:\DATA\090718_BVR_0008.hex C:\DATA\SBE19plusV2_7809.xmlcon
# datcnv_skipover = 0
# datcnv_ox_hysteresis_correction = yes
# datcnv_ox_tau_correction = yes
# filter_date = Sep 07 2018 19:07:11, 7.26.7.114
# filter_in = C:\DATA\090718_BVR_0008.cnv
# filter_low_pass_tc_A = 0.030
# filter_low_pass_tc_B = 0.150
# filter_low_pass_A_vars = prdM prdE tv290C
# filter_low_pass_B_vars = depFM dz/dtM sbeox0Mg/L sbeox0PS specc c0uS/cm flECO-AFL ph orp par/sat/log turbWETntu0
# alignctd_date = Sep 07 2018 19:07:51, 7.26.7.114
# alignctd_in = C:\DATA\090718_BVR_0008.cnv
# alignctd_adv = dz/dtM 1.000, sbeox0Mg/L 1.000, sbeox0PS 1.000, specc 1.000, c0uS/cm 1.000, flECO-AFL 1.000, ph 1.000, orp 1.000, turbWETntu0 1.000                                                                                 
# file_type = ascii
*END*
     -0.593      0.002     7.4149     99.345     11.972  13.344844    -0.0504      7.426   217.1721 2.6834e+03     0.1469     -0.582     -0.844    30.7559 0.0000e+00
     -0.592      0.012     7.4230     99.335     14.953  16.638113    -0.0986      7.483   215.0243 2.6799e+03     0.1538     -0.581     -0.842    30.7527 0.0000e+00
     -0.592      0.033     7.4544     99.339     21.422  23.698587    -0.7031      7.626   194.6147 2.6619e+03     0.4556     -0.581     -0.842    30.7474 0.0000e+00
     -0.592      0.064     7.5081     99.357     29.579  32.499706    -1.8091      7.794   163.1283 2.6550e+03     1.0787     -0.581     -0.843    30.7451 0.0000e+00
     -0.585      0.101     7.5600     99.391     33.354  36.442928    -2.4065      7.896   146.0454 2.6751e+03     1.4312     -0.581     -0.844    30.7364 0.0000e+00
     -0.556      0.136     7.5953     99.418     32.634  35.499752    -2.4584      7.935   143.7981 2.6996e+03     1.4828     -0.557     -0.807    30.7328 0.0000e+00
     -0.501      0.165     7.6223     99.443     31.356  33.990431    -2.4170      7.947   143.4421 2.7007e+03     1.9168     -0.492     -0.713    30.5067 0.0000e+00
     -0.439      0.180     7.6527     99.529     30.597  33.057091    -1.8327      7.947   143.5468 2.6841e+03     7.1050     -0.429     -0.623    29.9811 0.0000e+00
     -0.380      0.181     7.6863     99.702     30.318  32.662163    -0.7512      7.939   143.6881 2.6717e+03    16.6668     -0.371     -0.537    29.5696 0.0000e+00
     -0.330      0.168     7.7201     99.961     30.300  32.581409    -0.1579      7.925   143.5156 2.6632e+03    21.8534     -0.316     -0.459    29.3630 0.0000e+00
     -0.293      0.147     7.7526    100.277     30.400  32.652204    -0.0815      7.912   143.2685 2.6542e+03    21.8410     -0.285     -0.413    29.1923 0.0000e+00
     -0.266      0.129     7.7833    100.612     30.517  32.755944     0.1732      7.902   143.1957 2.6500e+03    16.5776     -0.261     -0.378    29.0026 0.0000e+00
     -0.241      0.119     7.8144    100.980     30.765  33.010038     0.6333      7.895   143.0648 2.6561e+03     6.8607     -0.235     -0.341    28.8376 0.0000e+00
     -0.216      0.115     7.8469    101.380     31.111  33.374438     0.8868      7.890   142.8903 2.6622e+03     1.5545     -0.211     -0.305    28.7425 0.0000e+00
     -0.191      0.113     7.8766    101.760     31.268  33.541613     0.9123      7.888   142.8934 2.6662e+03     1.0665     -0.191     -0.277    28.6893 0.0000e+00
     -0.158      0.108     7.8989    102.075     31.286  33.570534     0.9418      7.887   143.1020 2.6903e+03     1.0217     -0.160     -0.233    28.6570 0.0000e+00
     -0.118      0.098     7.9138    102.314     31.296  33.597099     1.0042      7.885   143.3478 2.7323e+03     1.0434     -0.113     -0.163    28.6386 0.0000e+00
     -0.086      0.085     7.9261    102.501     31.297  33.608788     1.0508      7.883   143.4559 2.7603e+03     1.0543     -0.076     -0.110    28.6313 0.0000e+00
     -0.071      0.069     7.9367    102.646     31.273  33.584852     1.0549      7.884   143.5481 2.7585e+03     1.0311     -0.068     -0.099    28.6199 0.0000e+00
     -0.065      0.054     7.9428    102.724     31.133  33.434717     1.0451      7.884   143.8610 2.7431e+03     1.0073     -0.065     -0.094    28.6393 0.0000e+00
     -0.057      0.039     7.9443    102.737     30.849  33.127311     1.0426      7.884   144.1420 2.7363e+03     1.0104     -0.055     -0.080    28.6773 0.0000e+00
     -0.050      0.029     7.9391    102.646     30.483  32.726125     1.0435      7.884   144.1925 2.7393e+03     1.0378     -0.049     -0.071    28.6899 0.0000e+00
     -0.041      0.024     7.9060    102.158     30.193  32.394744     1.0464      7.884   144.2990 2.7404e+03     1.0330     -0.042     -0.060    28.6915 0.0000e+00
     -0.032      0.020     7.8299    101.082     30.071  32.232634     1.0410      7.883   144.6554 2.7398e+03     1.0135     -0.031     -0.044    28.6901 0.0000e+00
     -0.027      0.015     7.7314     99.708     30.039  32.163258     1.0242      7.881   145.1464 2.7409e+03     1.0159     -0.025     -0.036    28.6887 0.0000e+00
     -0.027      0.011     7.6180     98.160     30.034  32.127448     1.0187      7.881   145.4173 2.7424e+03     1.0315     -0.026     -0.037    28.6812 0.0000e+00
     -0.027      0.006     7.4760     96.272     30.043  32.117171     1.0290      7.881   145.5216 2.7426e+03     1.0497     -0.027     -0.039    28.6474 0.0000e+00
     -0.026      0.003     7.3067     94.061     30.040  32.102475     1.0384      7.882   145.8060 2.7402e+03     1.0524     -0.025     -0.037    28.5892 0.0000e+00
     -0.025      0.001     7.1284     91.751     30.021  32.076761     1.0314      7.882   146.1875 2.7366e+03     1.0336     -0.024     -0.035    28.5254 0.0000e+00
     -0.025      0.001     6.9741     89.755     30.009  32.060291     1.0179      7.881   146.4352 2.7321e+03     1.0053     -0.025     -0.036    28.4725 0.0000e+00
     -0.024      0.001     6.8819     88.565     30.042  32.093858     1.0220      7.880   146.6499 2.7230e+03     1.0160     -0.025     -0.035    28.4393 0.0000e+00
     -0.024      0.001     6.8604     88.290     30.108  32.165069     1.0347      7.879   146.9760 2.7024e+03     1.0406     -0.023     -0.033    28.4240 0.0000e+00
     -0.024      0.000     6.8767     88.501     30.161  32.222684     1.0426      7.880   147.1954 2.6664e+03     1.0279     -0.024     -0.034    28.4166 0.0000e+00
     -0.024 5.5576e-08     6.9000     88.799     30.158  32.218899     1.0535      7.880   147.3235 2.6055e+03     1.0153     -0.025     -0.036    28.4098 0.0000e+00
     -0.024 6.1133e-07     6.9170     89.013     30.067  32.119301     1.0659      7.879   147.6645 2.5018e+03     1.0110     -0.024     -0.035    28.4065 0.0000e+00
     -0.024      0.000     6.9149     88.983     29.989  32.034612     1.0637      7.878   148.0485 2.3483e+03     1.0365     -0.023     -0.033    28.4094 0.0000e+00
     -0.024      0.000     6.8852     88.600     29.976  32.020559     1.0636      7.878   148.3538 2.1567e+03     1.0803     -0.024     -0.034    28.4121 0.0000e+00
     -0.025      0.001     6.8246     87.825     29.967  32.012899     1.0827      7.877   148.6884 1.9532e+03     1.0518     -0.025     -0.036    28.4103 0.0000e+00
     -0.025      0.001     6.7343     86.672     29.957  32.005505     1.0932      7.877   148.9960 1.7646e+03     0.9969     -0.025     -0.036    28.4062 0.0000e+00
     -0.024      0.000     6.6233     85.258     29.942  31.994672     1.0979      7.877   149.3196 1.6053e+03     0.9966     -0.023     -0.034    28.4035 0.0000e+00
     -0.023 -1.878e-08     6.5070     83.777     29.949  32.008942     1.1206      7.876   149.6757 1.4828e+03     1.0171     -0.023     -0.033    28.4036 0.0000e+00
     -0.023 -2.066e-07     6.3933     82.327     29.983  32.051041     1.1478      7.874   150.0322 1.4048e+03     1.0317     -0.023     -0.033    28.4064 0.0000e+00
     -0.023      0.000     6.2853     80.948     29.985  32.059121     1.1601      7.872   150.3608 1.3700e+03     1.0203     -0.023     -0.033    28.4122 0.0000e+00
     -0.024      0.000     6.1990     79.849     29.965  32.043146     1.1590      7.872   150.5517 1.3641e+03     1.0017     -0.023     -0.034    28.4220 0.0000e+00
     -0.024     -0.001     6.1570     79.322     29.964  32.048417     1.1534      7.872   150.7911 1.3676e+03     1.0205     -0.024     -0.035    28.4331 0.0000e+00
     -0.024     -0.001     6.1730     79.542     29.969  32.059349     1.1566      7.872   151.1909 1.3658e+03     1.0332     -0.024     -0.035    28.4429 0.0000e+00
     -0.024     -0.001     6.2387     80.397     29.956  32.048313     1.1602      7.871   151.5138 1.3583e+03     1.0338     -0.023     -0.034    28.4522 0.0000e+00
     -0.024     -0.001     6.3329     81.605     29.952  32.042009     1.1512      7.871   151.7694 1.3516e+03     1.0283     -0.024     -0.034    28.4596 0.0000e+00
     -0.024     -0.001     6.4372     82.929     29.963  32.046638     1.1483      7.870   152.0444 1.3504e+03     0.9963     -0.024     -0.035    28.4696 0.0000e+00
     -0.025     -0.001     6.5397     84.224     29.968  32.040761     1.1720      7.868   152.2578 1.3587e+03     0.9819     -0.025     -0.036    28.4811 0.0000e+00
     -0.025     -0.001     6.6372     85.456     29.971  32.034440     1.2079      7.868   152.3713 1.3837e+03     0.9768     -0.025     -0.036    28.4891 0.0000e+00
     -0.026     -0.001     6.7253     86.570     29.977  32.033700     1.2240      7.868   152.5557 1.4322e+03     0.9649     -0.026     -0.037    28.4873 0.0000e+00
     -0.026     -0.000     6.7953     87.454     29.982  32.031807     1.2287      7.867   152.8522 1.4987e+03     0.9907     -0.025     -0.037    28.4699 0.0000e+00
     -0.026 -4.280e-07     6.8436     88.057     29.970  32.011543     1.2369      7.866   153.0315 1.5700e+03     1.0142     -0.025     -0.037    28.4502 0.0000e+00
     -0.025     -0.000     6.8735     88.417     29.949  31.979212     1.2410      7.865   153.1745 1.6360e+03     1.0047     -0.025     -0.036    28.4349 0.0000e+00
     -0.025     -0.000     6.8925     88.633     29.939  31.958420     1.2411      7.865   153.4630 1.6873e+03     0.9987     -0.025     -0.036    28.4214 0.0000e+00
     -0.026     -0.001     6.9051     88.771     29.940  31.950668     1.2473      7.865   153.6804 1.7143e+03     1.0025     -0.025     -0.037    28.4112 0.0000e+00
     -0.026     -0.001     6.9107     88.828     29.945  31.948974     1.2700      7.865   153.8240 1.7121e+03     1.0198     -0.026     -0.037    28.4001 0.0000e+00
     -0.026     -0.001     6.9081     88.787     29.937  31.937927     1.2957      7.864   154.0812 1.6840e+03     1.0251     -0.026     -0.038    28.3835 0.0000e+00
     -0.026     -0.000     6.8991     88.668     29.944  31.944116     1.3094      7.864   154.3810 1.6370e+03     1.0052     -0.026     -0.038    28.3640 0.0000e+00
     -0.026      0.000     6.8876     88.513     29.962  31.960292     1.3168      7.863   154.6954 1.5711e+03     0.9933     -0.026     -0.037    28.3478 0.0000e+00
     -0.026      0.001     6.8768     88.367     29.948  31.942980     1.3298      7.862   155.0439 1.4887e+03     1.0025     -0.026     -0.038    28.3373 0.0000e+00
     -0.026      0.001     6.8657     88.220     29.933  31.925325     1.3554      7.861   155.4100 1.4007e+03     1.0248     -0.025     -0.037    28.3339 0.0000e+00
     -0.026      0.001     6.8500     88.015     29.945  31.937349     1.3698      7.861   155.7669 1.3168e+03     1.0195     -0.026     -0.037    28.3329 0.0000e+00
     -0.025      0.001     6.8296     87.752     29.968  31.961336     1.3660      7.860   156.0039 1.2446e+03     0.9693     -0.025     -0.036    28.3288 0.0000e+00
     -0.025      0.001     6.8068     87.457     29.969  31.961307     1.3647      7.859   156.1239 1.1882e+03     0.9360     -0.024     -0.035    28.3236 0.0000e+00
     -0.025      0.001     6.7835     87.157     29.947  31.937006     1.3626      7.859   156.2720 1.1472e+03     0.9535     -0.024     -0.035    28.3203 0.0000e+00
     -0.025      0.001     6.7597     86.851     29.932  31.921546     1.3594      7.859   156.5035 1.1208e+03     0.9974     -0.024     -0.035    28.3192 0.0000e+00
