* Sea-Bird SBE19plus  Data File:
* FileName = C:\DATA\091119_fcr50_0_0001.hex
* Software version 2.8.0.119 SB_Terminal.dll
* Temperature SN = 7809
* Conductivity SN = 7809
* System UpLoad Time = Sep 11 2019 16:21:30
* <ApplicationData>
* <Seaterm232>
* <SoftwareVersion>2.8.0.119</SoftwareVersion>
* <BuildDate>07-Nov-2018</BuildDate>
* </Seaterm232>
* </ApplicationData>
* cast   1 11 Sep 2019 10:37:00 samples 1 to 439, avg = 1, stop = mag switch
# nquan = 16
# nvalues = 318                         
# units = specified
# name 0 = depFM: Depth [fresh water, m]
# name 1 = sbeox0Mg/L: Oxygen, SBE 43 [mg/l]
# name 2 = sbeox0PS: Oxygen, SBE 43 [% saturation]
# name 3 = specc: Specific Conductance [uS/cm]
# name 4 = c0uS/cm: Conductivity [uS/cm]
# name 5 = flECO-AFL: Fluorescence, WET Labs ECO-AFL/FL [mg/m^3]
# name 6 = ph: pH
# name 7 = orp: Oxidation Reduction Potential [mV]
# name 8 = par/sat/log: PAR/Logarithmic, Satlantic
# name 9 = turbWETntu0: Turbidity, WET Labs ECO [NTU]
# name 10 = prdM: Pressure, Strain Gauge [db]
# name 11 = prdE: Pressure, Strain Gauge [psi]
# name 12 = tv290C: Temperature [ITS-90, deg C]
# name 13 = density00: Density [density, kg/m^3]
# name 14 = dz/dtM: Descent Rate [m/s]
# name 15 = flag:  0.000e+00
# span 0 =     -0.500,      2.523       
# span 1 =     0.1070,     9.5318       
# span 2 =      1.232,    114.606       
# span 3 =      0.799,    215.153       
# span 4 =   0.816923, 202.860233       
# span 5 =    -0.1360,    11.3297       
# span 6 =      6.090,      8.080       
# span 7 = -1240.7455,   227.9366       
# span 8 = 1.8046e+01, 1.4605e+03       
# span 9 =    -3.7943,    25.3373       
# span 10 =     -0.490,      2.475      
# span 11 =     -0.711,      3.590      
# span 12 =    22.0351,    26.1410      
# span 13 =   996.7550,   997.8370      
# span 14 =     -0.019,      0.175      
# span 15 = 0.0000e+00, 0.0000e+00      
# interval = seconds: 0.25
# start_time = Sep 11 2019 10:37:00 [Instrument's time stamp, header]
# bad_flag = -9.990e-29
# <Sensors count="9" >
#   <sensor Channel="1" >
#     <!-- Count, Temperature -->
#     <TemperatureSensor SensorID="58" >
#       <SerialNumber>7809</SerialNumber>
#       <CalibrationDate>24-Mar-19</CalibrationDate>
#       <A0>1.21792325e-003</A0>
#       <A1>2.81669265e-004</A1>
#       <A2>-1.60333336e-006</A2>
#       <A3>1.98414625e-007</A3>
#       <Slope>1.00000000</Slope>
#       <Offset>0.0000</Offset>
#     </TemperatureSensor>
#   </sensor>
#   <sensor Channel="2" >
#     <!-- Frequency 0, Conductivity -->
#     <ConductivitySensor SensorID="3" >
#       <SerialNumber>7809</SerialNumber>
#       <CalibrationDate>24-Mar-19</CalibrationDate>
#       <UseG_J>1</UseG_J>
#       <!-- Cell const and series R are applicable only for wide range sensors. -->
#       <SeriesR>0.0000</SeriesR>
#       <CellConst>2000.0000</CellConst>
#       <ConductivityType>0</ConductivityType>
#       <Coefficients equation="0" >
#         <A>0.00000000e+000</A>
#         <B>0.00000000e+000</B>
#         <C>0.00000000e+000</C>
#         <D>0.00000000e+000</D>
#         <M>0.0</M>
#         <CPcor>-9.57000000e-008</CPcor>
#       </Coefficients>
#       <Coefficients equation="1" >
#         <G>-1.00589325e+000</G>
#         <H>1.26816302e-001</H>
#         <I>-1.51560448e-004</I>
#         <J>2.67137274e-005</J>
#         <CPcor>-9.57000000e-008</CPcor>
#         <CTcor>3.2500e-006</CTcor>
#         <!-- WBOTC not applicable unless ConductivityType = 1. -->
#         <WBOTC>0.00000000e+000</WBOTC>
#       </Coefficients>
#       <Slope>1.00000000</Slope>
#       <Offset>0.00000</Offset>
#     </ConductivitySensor>
#   </sensor>
#   <sensor Channel="3" >
#     <!-- Count, Pressure, Strain Gauge -->
#     <PressureSensor SensorID="46" >
#       <SerialNumber>7809</SerialNumber>
#       <CalibrationDate>11-Mar-19</CalibrationDate>
#       <PA0>4.56561833e-002</PA0>
#       <PA1>4.85095118e-004</PA1>
#       <PA2>-2.88327090e-012</PA2>
#       <PTEMPA0>-5.48784562e+001</PTEMPA0>
#       <PTEMPA1>5.53756816e+001</PTEMPA1>
#       <PTEMPA2>-5.86727098e-001</PTEMPA2>
#       <PTCA0>5.25246745e+005</PTCA0>
#       <PTCA1>1.22304214e+001</PTCA1>
#       <PTCA2>-3.56745036e-001</PTCA2>
#       <PTCB0>2.51668750e+001</PTCB0>
#       <PTCB1>3.75000000e-004</PTCB1>
#       <PTCB2>0.00000000e+000</PTCB2>
#       <Offset>0.000000</Offset>
#     </PressureSensor>
#   </sensor>
#   <sensor Channel="4" >
#     <!-- A/D voltage 0, Oxygen, SBE 43 -->
#     <OxygenSensor SensorID="38" >
#       <SerialNumber>0434</SerialNumber>
#       <CalibrationDate>13-Apr-19</CalibrationDate>
#       <Use2007Equation>1</Use2007Equation>
#       <CalibrationCoefficients equation="0" >
#         <!-- Coefficients for Owens-Millard equation. -->
#         <Boc>0.0000</Boc>
#         <Soc>0.0000e+000</Soc>
#         <offset>0.0000</offset>
#         <Pcor>0.00e+000</Pcor>
#         <Tcor>0.0000</Tcor>
#         <Tau>0.0</Tau>
#       </CalibrationCoefficients>
#       <CalibrationCoefficients equation="1" >
#         <!-- Coefficients for Sea-Bird equation - SBE calibration in 2007 and later. -->
#         <Soc>4.2007e-001</Soc>
#         <offset>-0.6109</offset>
#         <A>-4.3656e-003</A>
#         <B> 1.7017e-004</B>
#         <C>-2.5341e-006</C>
#         <D0> 2.5826e+000</D0>
#         <D1> 1.92634e-004</D1>
#         <D2>-4.64803e-002</D2>
#         <E> 3.6000e-002</E>
#         <Tau20> 1.1800</Tau20>
#         <H1>-3.3000e-002</H1>
#         <H2> 5.0000e+003</H2>
#         <H3> 1.4500e+003</H3>
#       </CalibrationCoefficients>
#     </OxygenSensor>
#   </sensor>
#   <sensor Channel="5" >
#     <!-- A/D voltage 1, PAR/Logarithmic, Satlantic -->
#     <PARLog_SatlanticSensor SensorID="76" >
#       <SerialNumber>1122</SerialNumber>
#       <CalibrationDate>08-May-2019</CalibrationDate>
#       <a0>9.7456e-001</a0>
#       <a1>8.1640e-001</a1>
#       <Im>1.3589e+000</Im>
#       <Multiplier>1.0000e+000</Multiplier>
#     </PARLog_SatlanticSensor>
#   </sensor>
#   <sensor Channel="6" >
#     <!-- A/D voltage 2, pH -->
#     <pH_Sensor SensorID="43" >
#       <SerialNumber>0363</SerialNumber>
#       <CalibrationDate>15-Apr-19</CalibrationDate>
#       <Slope>4.5952</Slope>
#       <Offset>2.5370</Offset>
#     </pH_Sensor>
#   </sensor>
#   <sensor Channel="7" >
#     <!-- A/D voltage 3, Oxidation Reduction Potential -->
#     <OxidationReductionPotentialSensor SensorID="41" >
#       <SerialNumber>0363</SerialNumber>
#       <CalibrationDate>15-Apr-19</CalibrationDate>
#       <B>2.499480</B>
#       <M>-0.496195</M>
#       <Offset>0.0</Offset>
#     </OxidationReductionPotentialSensor>
#   </sensor>
#   <sensor Channel="8" >
#     <!-- A/D voltage 4, Fluorometer, WET Labs ECO-AFL/FL -->
#     <FluoroWetlabECO_AFL_FL_Sensor SensorID="20" >
#       <SerialNumber>FLNTURT-2496</SerialNumber>
#       <CalibrationDate>08-May-2019</CalibrationDate>
#       <ScaleFactor>5.00000000e+001</ScaleFactor>
#       <!-- Dark output -->
#       <Vblank>0.0550</Vblank>
#     </FluoroWetlabECO_AFL_FL_Sensor>
#   </sensor>
#   <sensor Channel="9" >
#     <!-- A/D voltage 5, Turbidity Meter, WET Labs, ECO-NTU -->
#     <TurbidityMeter SensorID="67" >
#       <SerialNumber>FLNTURT-2496</SerialNumber>
#       <CalibrationDate>08-May-2019</CalibrationDate>
#       <ScaleFactor>189.000000</ScaleFactor>
#       <!-- Dark output -->
#       <DarkVoltage>0.071000</DarkVoltage>
#     </TurbidityMeter>
#   </sensor>
# </Sensors>
# datcnv_date = Sep 16 2019 11:28:26, 7.26.7.129 [datcnv_vars = 15]
# datcnv_in = C:\Users\CareyLab\Desktop\CTD_2019\091119_fcr10.hex C:\DATA\SBE19plusV2_7809.xmlcon
# datcnv_skipover = 0
# datcnv_ox_hysteresis_correction = yes
# datcnv_ox_tau_correction = yes
# filter_date = Sep 16 2019 11:29:04, 7.26.7.129
# filter_in = C:\Users\CareyLab\Desktop\CTD_2019\091119_fcr10.cnv
# filter_low_pass_tc_A = 0.030
# filter_low_pass_tc_B = 0.150
# filter_low_pass_A_vars = prdM prdE tv290C density00
# filter_low_pass_B_vars = depFM sbeox0Mg/L sbeox0PS specc c0uS/cm flECO-AFL ph orp par/sat/log turbWETntu0 dz/dtM
# alignctd_date = Sep 16 2019 11:29:40, 7.26.7.129
# alignctd_in = C:\Users\CareyLab\Desktop\CTD_2019\091119_fcr10.cnv
# alignctd_adv = sbeox0Mg/L 1.000, sbeox0PS 1.000, specc 1.000, c0uS/cm 1.000, flECO-AFL 1.000, ph 1.000, orp 1.000, turbWETntu0 1.000, dz/dtM 1.000                                                                                 
# file_type = ascii
*END*
     -0.499     7.3677     91.023      0.837   0.856097    -0.1213      6.090 -1240.7455 1.3312e+03    -0.4903     -0.489     -0.710    26.1242   996.7593 7.0584e-27 0.0000e+00
     -0.499     7.3669     91.015      0.811   0.829601    -0.1199      6.090 -1240.7455 9.0947e+02    -0.4966     -0.489     -0.709    26.1248   996.7591 7.7643e-26 0.0000e+00
     -0.499     7.3664     91.009      0.822   0.840892    -0.1031      6.090 -1240.7455 7.7798e+02    -0.4818     -0.490     -0.711    26.1256   996.7589 8.5407e-25 0.0000e+00
     -0.499     7.3671     91.018      0.847   0.865902     0.0649      6.092 -1240.7455 9.8849e+02    -0.2793     -0.490     -0.710    26.1260   996.7588 9.3948e-24 0.0000e+00
     -0.499     7.3667     91.013      0.859   0.878553     0.3678      6.093 -1240.7455 1.1688e+03     0.1167     -0.489     -0.709    26.1265   996.7587 1.0334e-22 0.0000e+00
     -0.499     7.3648     90.992      0.847   0.867146     0.5425      6.093 -1240.7455 1.1416e+03     0.3742     -0.490     -0.711    26.1272   996.7585 1.1368e-21 0.0000e+00
     -0.499     7.3643     90.987      0.835   0.854691     0.5649      6.092 -1240.7455 1.0012e+03     0.4414     -0.489     -0.710    26.1275   996.7584 1.2504e-20 0.0000e+00
     -0.499     7.3648     90.994      0.835   0.854683     0.3953      6.091 -1240.7455 8.7233e+02     0.4699     -0.489     -0.709    26.1277   996.7583 1.3755e-19 0.0000e+00
     -0.499     7.3648     90.994      0.848   0.867043     0.0692      6.092 -1240.7455 8.0330e+02     0.5227     -0.490     -0.710    26.1281   996.7583 1.5130e-18 0.0000e+00
     -0.499     7.3653     91.001      0.858   0.877420    -0.0998      6.093 -1240.7455 8.5460e+02     0.5878     -0.490     -0.711    26.1288   996.7581 1.6643e-17 0.0000e+00
     -0.499     7.3663     91.016      0.834   0.853425    -0.1136      6.094 -1240.7455 9.8015e+02     0.6015     -0.490     -0.710    26.1294   996.7579 1.8308e-16 0.0000e+00
     -0.499     7.3665     91.019      0.812   0.830367    -0.1150      6.094 -1240.7455 1.0579e+03     0.3287     -0.490     -0.711    26.1299   996.7578 2.0139e-15 0.0000e+00
     -0.499     7.3668     91.024      0.833   0.852066    -0.1165      6.094 -1240.7455 1.0359e+03    -0.1873     -0.490     -0.710    26.1303   996.7577 2.2152e-14 0.0000e+00
     -0.499     7.3680     91.040      0.844   0.862351    -0.1141      6.094 -1240.7455 9.4690e+02    -0.4263     -0.490     -0.711    26.1310   996.7575 2.4368e-13 0.0000e+00
     -0.499     7.3691     91.055      0.810   0.828003    -0.1044      6.095 -1240.7455 8.7980e+02    -0.4311     -0.490     -0.710    26.1319   996.7572 2.6804e-12 0.0000e+00
     -0.499     7.3700     91.067      0.799   0.816923    -0.1117      6.097 -1240.7455 9.1808e+02    -0.4749     -0.489     -0.710    26.1327   996.7570 2.9485e-11 0.0000e+00
     -0.499     7.3704     91.072      0.836   0.855092    -0.1322      6.099 -1240.7455 9.9895e+02    -0.4646     -0.490     -0.711    26.1335   996.7568 3.2433e-10 0.0000e+00
     -0.499     7.3704     91.073      0.889   0.909351    -0.1360      6.102 -1240.7455 9.6524e+02    -0.4376     -0.489     -0.709    26.1341   996.7567 3.5677e-09 0.0000e+00
     -0.500     7.3719     91.093      0.945   0.966093    -0.1227      6.103 -1240.7455 9.4142e+02    -0.4759     -0.490     -0.710    26.1348   996.7565 3.9244e-08 0.0000e+00
     -0.500     7.3753     91.136      1.011   1.034282    -0.1190      6.100 -1240.7455 1.0132e+03    -0.5016     -0.490     -0.711    26.1354   996.7563 4.3169e-07 0.0000e+00
     -0.499     7.3793     91.188      1.076   1.100215    -0.1262      6.098 -1240.7453 9.1530e+02    -0.3560     -0.490     -0.710    26.1359   996.7562      0.000 0.0000e+00
     -0.499     7.3847     91.255      1.104   1.129682    -0.1230      6.098 -1240.7430 7.2918e+02    -0.0258     -0.490     -0.710    26.1366   996.7560      0.000 0.0000e+00
     -0.499     7.3937     91.367      1.112   1.137132    -0.1149      6.098 -1240.7176 7.2634e+02     0.1808     -0.490     -0.711    26.1372   996.7558      0.001 0.0000e+00
     -0.499     7.4056     91.513      1.164   1.190296    -0.1067      6.094 -1240.4391 7.8067e+02     0.1753     -0.489     -0.710    26.1382   996.7556      0.001 0.0000e+00
     -0.499     7.4182     91.667      1.299   1.328961     0.0028      6.132 -1237.3754 6.7640e+02     0.2027     -0.489     -0.709    26.1389   996.7554      0.005 0.0000e+00
     -0.499     7.4340     91.822      1.949   1.990032     0.2113      6.267 -1203.6748 4.7517e+02     0.3154     -0.489     -0.709    26.1394   996.7553      0.015 0.0000e+00
     -0.499     7.4628     92.026      6.845   6.965592     0.3250      6.484  -832.9673 3.6157e+02     0.3919     -0.489     -0.709    26.1395   996.7552      0.032 0.0000e+00
     -0.497     7.5112     92.358     19.228  19.525606     0.3552      6.769  -157.0895 4.4792e+02     0.3076     -0.490     -0.711    26.1402   996.7550      0.056 0.0000e+00
     -0.485     7.5685     92.787     31.929  32.359632     0.6447      7.099   203.3832 7.2652e+02    -0.8024     -0.484     -0.702    26.1399   996.7551      0.085 0.0000e+00
     -0.455     7.6240     93.240     37.081  37.502704     1.1726      7.417   227.9366 9.9525e+02    -2.7706     -0.450     -0.651    26.1410   996.7550      0.117 0.0000e+00
     -0.415     7.6820     93.762     37.710  38.058659     1.4497      7.667   224.9626 1.1619e+03    -3.7943     -0.406     -0.589    26.0567   996.7778      0.147 0.0000e+00
     -0.372     7.7503     94.440     37.910  38.192837     1.4554      7.821   217.3279 1.2929e+03    -3.7086     -0.368     -0.534    25.8601   996.8342      0.168 0.0000e+00
     -0.321     7.8278     95.247     38.012  38.236254     1.3710      7.908   211.4267 1.3885e+03    -1.5378     -0.318     -0.461    25.6873   996.8851      0.175 0.0000e+00
     -0.265     7.9060     96.082     38.029  38.202654     1.2351      7.966   208.0747 1.4320e+03     2.4952     -0.258     -0.374    25.5596   996.9193      0.168 0.0000e+00
     -0.214     7.9783     96.864     38.034  38.167375     1.1744      8.007   202.2662 1.4400e+03     4.7106     -0.204     -0.297    25.4497   996.9481      0.152 0.0000e+00
     -0.177     8.0378     97.511     38.089  38.190500     1.1742      8.036   195.3159 1.4461e+03     4.9297     -0.168     -0.244    25.3633   996.9708      0.136 0.0000e+00
     -0.152     8.0804     97.976     38.150  38.228301     1.2065      8.059   190.5471 1.4605e+03     4.9156     -0.147     -0.213    25.2856   996.9911      0.125 0.0000e+00
     -0.135     8.1097     98.296     38.180  38.243520     1.2875      8.076   187.6263 1.4545e+03     4.8668     -0.133     -0.193    25.2176   997.0088      0.122 0.0000e+00
     -0.116     8.1293     98.515     38.192  38.247535     1.3393      8.080   183.2315 1.3955e+03     4.8652     -0.120     -0.173    25.1639   997.0226      0.129 0.0000e+00
     -0.084     8.1433     98.675     38.226  38.276835     1.3470      8.074   179.2249 1.3122e+03     4.8960     -0.089     -0.129    25.1226   997.0334      0.144 0.0000e+00
     -0.038     8.1577     98.844     38.231  38.280392     1.3543      8.064   179.9655 1.2528e+03     4.9114     -0.040     -0.058    25.0931   997.0413      0.160 0.0000e+00
      0.015     8.1759     99.060     38.180  38.227063     1.4360      8.054   181.1736 1.0958e+03     5.0512      0.014      0.021    25.0748   997.0463      0.170 0.0000e+00
      0.068     8.1964     99.307     38.156  38.203330     1.5985      8.045   180.0654 8.2680e+02     5.3411      0.069      0.101    25.0647   997.0491      0.171 0.0000e+00
      0.116     8.2105     99.470     38.141  38.183873     1.6975      8.036   178.1818 6.1178e+02     5.5328      0.117      0.170    25.0608   997.0503      0.163 0.0000e+00
      0.154     8.2010     99.317     38.091  38.118751     1.7140      8.026   172.4230 4.4869e+02     5.5996      0.154      0.222    25.0591   997.0509      0.148 0.0000e+00
      0.184     8.1620     98.772     38.054  38.050690     1.7023      8.015   162.9210 3.7970e+02     5.4598      0.180      0.260    25.0557   997.0519      0.129 0.0000e+00
      0.214     8.1137     98.087     38.041  37.995679     1.6688      8.004   156.3884 3.9294e+02     5.1210      0.209      0.304    25.0558   997.0520      0.110 0.0000e+00
      0.242     8.0658     97.410     38.048  37.961369     1.6478      7.991   154.0948 3.8530e+02     4.9113      0.241      0.349    25.0568   997.0518      0.093 0.0000e+00
      0.266     7.9970     96.506     38.071  37.953170     1.6475      7.973   152.9140 3.9133e+02     4.8906      0.264      0.383    25.0397   997.0563      0.079 0.0000e+00
      0.281     7.9056     95.362     38.096  37.959980     1.6395      7.953   151.9202 4.8038e+02     4.8046      0.277      0.402    24.9960   997.0676      0.067 0.0000e+00
      0.293     7.8365     94.509     38.125  37.980205     1.6106      7.939   150.9409 6.0089e+02     4.5606      0.287      0.416    24.9338   997.0836      0.055 0.0000e+00
      0.304     7.8275     94.388     38.157  38.007268     1.5846      7.929   150.1074 5.7745e+02     4.4312      0.298      0.434    24.8749   997.0987      0.045 0.0000e+00
      0.315     7.8718     94.913     38.187  38.033283     1.5846      7.922   149.4991 4.6434e+02     4.4519      0.309      0.449    24.8319   997.1097      0.039 0.0000e+00
      0.324     7.9368     95.688     38.198  38.040833     1.6548      7.914   149.0064 4.2419e+02     4.4512      0.319      0.463    24.8117   997.1149      0.036 0.0000e+00
      0.331     7.9920     96.344     38.197  38.035063     1.7741      7.904   148.4523 4.2421e+02     4.4557      0.323      0.470    24.8047   997.1167      0.033 0.0000e+00
      0.339     8.0199     96.669     38.193  38.027000     1.8308      7.895   147.7042 4.4720e+02     4.4730      0.331      0.480    24.7971   997.1187      0.028 0.0000e+00
      0.349     8.0113     96.556     38.177  38.006814     1.8297      7.887   146.8437 5.0286e+02     4.4961      0.342      0.496    24.7925   997.1199      0.018 0.0000e+00
      0.357     7.9615     95.950     38.154  37.981416     1.8127      7.881   146.1362 5.4738e+02     4.5053      0.352      0.510    24.7894   997.1207      0.008 0.0000e+00
      0.360     7.8700     94.841     38.150  37.973819     1.7902      7.872   145.8609 5.7116e+02     4.4866      0.358      0.518    24.7833   997.1223      0.001 0.0000e+00
      0.355     7.7484     93.361     38.161  37.978431     1.7824      7.855   145.9243 5.5181e+02     4.4659      0.351      0.509    24.7759   997.1242     -0.001 0.0000e+00
      0.344     7.6125     91.704     38.165  37.973692     1.7790      7.827   145.8699 5.1492e+02     4.4514      0.335      0.486    24.7708   997.1253     -0.001 0.0000e+00
      0.337     7.4716     89.988     38.180  37.979983     1.8191      7.797   145.5479 5.3971e+02     4.5088      0.324      0.472    24.7677   997.1261      0.000 0.0000e+00
      0.342     7.3363     88.345     38.197  37.991003     1.9024      7.774   145.3006 6.0591e+02     4.6354      0.331      0.482    24.7653   997.1268      0.003 0.0000e+00
