* Sea-Bird SBE19plus  Data File:
* FileName = C:\DATA\091119_fcr50_0001.hex
* Software version 2.8.0.119 SB_Terminal.dll
* Temperature SN = 7809
* Conductivity SN = 7809
* System UpLoad Time = Sep 11 2019 09:54:56
* <ApplicationData>
* <Seaterm232>
* <SoftwareVersion>2.8.0.119</SoftwareVersion>
* <BuildDate>07-Nov-2018</BuildDate>
* </Seaterm232>
* </ApplicationData>
* cast   1 11 Sep 2019 09:39:12 samples 1 to 822, avg = 1, stop = mag switch
# nquan = 16
# nvalues = 670                         
# units = specified
# name 0 = depFM: Depth [fresh water, m]
# name 1 = sbeox0Mg/L: Oxygen, SBE 43 [mg/l]
# name 2 = sbeox0PS: Oxygen, SBE 43 [% saturation]
# name 3 = specc: Specific Conductance [uS/cm]
# name 4 = c0uS/cm: Conductivity [uS/cm]
# name 5 = flECO-AFL: Fluorescence, WET Labs ECO-AFL/FL [mg/m^3]
# name 6 = ph: pH
# name 7 = orp: Oxidation Reduction Potential [mV]
# name 8 = par/sat/log: PAR/Logarithmic, Satlantic
# name 9 = turbWETntu0: Turbidity, WET Labs ECO [NTU]
# name 10 = prdM: Pressure, Strain Gauge [db]
# name 11 = prdE: Pressure, Strain Gauge [psi]
# name 12 = tv290C: Temperature [ITS-90, deg C]
# name 13 = density00: Density [density, kg/m^3]
# name 14 = dz/dtM: Descent Rate [m/s]
# name 15 = flag:  0.000e+00
# span 0 =     -0.498,      9.701       
# span 1 =    -0.0183,     8.5187       
# span 2 =     -0.175,    102.352       
# span 3 =      0.982,    412.132       
# span 4 =   0.982684, 312.472629       
# span 5 =    -0.1306,    22.9412       
# span 6 =     -2.331,      7.830       
# span 7 = -1240.7455,   225.4256       
# span 8 = 1.2355e-01, 9.9865e+02       
# span 9 =    -0.5455,    18.8173       
# span 10 =     -0.489,      9.514      
# span 11 =     -0.710,     13.800      
# span 12 =    12.2834,    25.0677      
# span 13 =   997.0358,   999.6180      
# span 14 =     -0.004,      0.256      
# span 15 = 0.0000e+00, 0.0000e+00      
# interval = seconds: 0.25
# start_time = Sep 11 2019 09:39:12 [Instrument's time stamp, header]
# bad_flag = -9.990e-29
# <Sensors count="9" >
#   <sensor Channel="1" >
#     <!-- Count, Temperature -->
#     <TemperatureSensor SensorID="58" >
#       <SerialNumber>7809</SerialNumber>
#       <CalibrationDate>24-Mar-19</CalibrationDate>
#       <A0>1.21792325e-003</A0>
#       <A1>2.81669265e-004</A1>
#       <A2>-1.60333336e-006</A2>
#       <A3>1.98414625e-007</A3>
#       <Slope>1.00000000</Slope>
#       <Offset>0.0000</Offset>
#     </TemperatureSensor>
#   </sensor>
#   <sensor Channel="2" >
#     <!-- Frequency 0, Conductivity -->
#     <ConductivitySensor SensorID="3" >
#       <SerialNumber>7809</SerialNumber>
#       <CalibrationDate>24-Mar-19</CalibrationDate>
#       <UseG_J>1</UseG_J>
#       <!-- Cell const and series R are applicable only for wide range sensors. -->
#       <SeriesR>0.0000</SeriesR>
#       <CellConst>2000.0000</CellConst>
#       <ConductivityType>0</ConductivityType>
#       <Coefficients equation="0" >
#         <A>0.00000000e+000</A>
#         <B>0.00000000e+000</B>
#         <C>0.00000000e+000</C>
#         <D>0.00000000e+000</D>
#         <M>0.0</M>
#         <CPcor>-9.57000000e-008</CPcor>
#       </Coefficients>
#       <Coefficients equation="1" >
#         <G>-1.00589325e+000</G>
#         <H>1.26816302e-001</H>
#         <I>-1.51560448e-004</I>
#         <J>2.67137274e-005</J>
#         <CPcor>-9.57000000e-008</CPcor>
#         <CTcor>3.2500e-006</CTcor>
#         <!-- WBOTC not applicable unless ConductivityType = 1. -->
#         <WBOTC>0.00000000e+000</WBOTC>
#       </Coefficients>
#       <Slope>1.00000000</Slope>
#       <Offset>0.00000</Offset>
#     </ConductivitySensor>
#   </sensor>
#   <sensor Channel="3" >
#     <!-- Count, Pressure, Strain Gauge -->
#     <PressureSensor SensorID="46" >
#       <SerialNumber>7809</SerialNumber>
#       <CalibrationDate>11-Mar-19</CalibrationDate>
#       <PA0>4.56561833e-002</PA0>
#       <PA1>4.85095118e-004</PA1>
#       <PA2>-2.88327090e-012</PA2>
#       <PTEMPA0>-5.48784562e+001</PTEMPA0>
#       <PTEMPA1>5.53756816e+001</PTEMPA1>
#       <PTEMPA2>-5.86727098e-001</PTEMPA2>
#       <PTCA0>5.25246745e+005</PTCA0>
#       <PTCA1>1.22304214e+001</PTCA1>
#       <PTCA2>-3.56745036e-001</PTCA2>
#       <PTCB0>2.51668750e+001</PTCB0>
#       <PTCB1>3.75000000e-004</PTCB1>
#       <PTCB2>0.00000000e+000</PTCB2>
#       <Offset>0.000000</Offset>
#     </PressureSensor>
#   </sensor>
#   <sensor Channel="4" >
#     <!-- A/D voltage 0, Oxygen, SBE 43 -->
#     <OxygenSensor SensorID="38" >
#       <SerialNumber>0434</SerialNumber>
#       <CalibrationDate>13-Apr-19</CalibrationDate>
#       <Use2007Equation>1</Use2007Equation>
#       <CalibrationCoefficients equation="0" >
#         <!-- Coefficients for Owens-Millard equation. -->
#         <Boc>0.0000</Boc>
#         <Soc>0.0000e+000</Soc>
#         <offset>0.0000</offset>
#         <Pcor>0.00e+000</Pcor>
#         <Tcor>0.0000</Tcor>
#         <Tau>0.0</Tau>
#       </CalibrationCoefficients>
#       <CalibrationCoefficients equation="1" >
#         <!-- Coefficients for Sea-Bird equation - SBE calibration in 2007 and later. -->
#         <Soc>4.2007e-001</Soc>
#         <offset>-0.6109</offset>
#         <A>-4.3656e-003</A>
#         <B> 1.7017e-004</B>
#         <C>-2.5341e-006</C>
#         <D0> 2.5826e+000</D0>
#         <D1> 1.92634e-004</D1>
#         <D2>-4.64803e-002</D2>
#         <E> 3.6000e-002</E>
#         <Tau20> 1.1800</Tau20>
#         <H1>-3.3000e-002</H1>
#         <H2> 5.0000e+003</H2>
#         <H3> 1.4500e+003</H3>
#       </CalibrationCoefficients>
#     </OxygenSensor>
#   </sensor>
#   <sensor Channel="5" >
#     <!-- A/D voltage 1, PAR/Logarithmic, Satlantic -->
#     <PARLog_SatlanticSensor SensorID="76" >
#       <SerialNumber>1122</SerialNumber>
#       <CalibrationDate>08-May-2019</CalibrationDate>
#       <a0>9.7456e-001</a0>
#       <a1>8.1640e-001</a1>
#       <Im>1.3589e+000</Im>
#       <Multiplier>1.0000e+000</Multiplier>
#     </PARLog_SatlanticSensor>
#   </sensor>
#   <sensor Channel="6" >
#     <!-- A/D voltage 2, pH -->
#     <pH_Sensor SensorID="43" >
#       <SerialNumber>0363</SerialNumber>
#       <CalibrationDate>15-Apr-19</CalibrationDate>
#       <Slope>4.5952</Slope>
#       <Offset>2.5370</Offset>
#     </pH_Sensor>
#   </sensor>
#   <sensor Channel="7" >
#     <!-- A/D voltage 3, Oxidation Reduction Potential -->
#     <OxidationReductionPotentialSensor SensorID="41" >
#       <SerialNumber>0363</SerialNumber>
#       <CalibrationDate>15-Apr-19</CalibrationDate>
#       <B>2.499480</B>
#       <M>-0.496195</M>
#       <Offset>0.0</Offset>
#     </OxidationReductionPotentialSensor>
#   </sensor>
#   <sensor Channel="8" >
#     <!-- A/D voltage 4, Fluorometer, WET Labs ECO-AFL/FL -->
#     <FluoroWetlabECO_AFL_FL_Sensor SensorID="20" >
#       <SerialNumber>FLNTURT-2496</SerialNumber>
#       <CalibrationDate>08-May-2019</CalibrationDate>
#       <ScaleFactor>5.00000000e+001</ScaleFactor>
#       <!-- Dark output -->
#       <Vblank>0.0550</Vblank>
#     </FluoroWetlabECO_AFL_FL_Sensor>
#   </sensor>
#   <sensor Channel="9" >
#     <!-- A/D voltage 5, Turbidity Meter, WET Labs, ECO-NTU -->
#     <TurbidityMeter SensorID="67" >
#       <SerialNumber>FLNTURT-2496</SerialNumber>
#       <CalibrationDate>08-May-2019</CalibrationDate>
#       <ScaleFactor>189.000000</ScaleFactor>
#       <!-- Dark output -->
#       <DarkVoltage>0.071000</DarkVoltage>
#     </TurbidityMeter>
#   </sensor>
# </Sensors>
# datcnv_date = Sep 16 2019 11:28:28, 7.26.7.129 [datcnv_vars = 15]
# datcnv_in = C:\Users\CareyLab\Desktop\CTD_2019\091119_fcr50.hex C:\DATA\SBE19plusV2_7809.xmlcon
# datcnv_skipover = 0
# datcnv_ox_hysteresis_correction = yes
# datcnv_ox_tau_correction = yes
# filter_date = Sep 16 2019 11:29:05, 7.26.7.129
# filter_in = C:\Users\CareyLab\Desktop\CTD_2019\091119_fcr50.cnv
# filter_low_pass_tc_A = 0.030
# filter_low_pass_tc_B = 0.150
# filter_low_pass_A_vars = prdM prdE tv290C density00
# filter_low_pass_B_vars = depFM sbeox0Mg/L sbeox0PS specc c0uS/cm flECO-AFL ph orp par/sat/log turbWETntu0 dz/dtM
# alignctd_date = Sep 16 2019 11:29:40, 7.26.7.129
# alignctd_in = C:\Users\CareyLab\Desktop\CTD_2019\091119_fcr50.cnv
# alignctd_adv = sbeox0Mg/L 1.000, sbeox0PS 1.000, specc 1.000, c0uS/cm 1.000, flECO-AFL 1.000, ph 1.000, orp 1.000, turbWETntu0 1.000, dz/dtM 1.000                                                                                 
# file_type = ascii
*END*
     -0.498     7.9017     95.750      1.061   1.062641    -0.1287      0.785 -1240.7455 3.7370e+02    -0.2327     -0.488     -0.708    25.0671   997.0360 1.2819e-31 0.0000e+00
     -0.498     7.9031     95.764      1.050   1.051018    -0.1112      0.135 -1240.7455 5.9325e+02    -0.2513     -0.488     -0.708    25.0676   997.0359 1.4101e-30 0.0000e+00
     -0.498     7.9033     95.761      1.061   1.062528    -0.1023     -0.052 -1240.7455 5.8249e+02    -0.2483     -0.488     -0.708    25.0677   997.0358 1.5512e-29 0.0000e+00
     -0.498     7.9028     95.747      1.074   1.075095    -0.1082     -0.575 -1240.7455 3.6532e+02    -0.2284     -0.488     -0.708    25.0674   997.0359 1.7063e-28 0.0000e+00
     -0.498     7.9039     95.753      1.075   1.076236    -0.1138     -1.516 -1240.7455 2.5262e+02    -0.2078     -0.489     -0.709    25.0673   997.0359 1.8769e-27 0.0000e+00
     -0.498     7.9059     95.772      1.075   1.076330    -0.1176     -2.151 -1240.7455 3.3028e+02    -0.2286     -0.488     -0.708    25.0665   997.0362 2.0646e-26 0.0000e+00
     -0.498     7.9065     95.777      1.075   1.076236    -0.1194     -2.315 -1240.7455 4.9072e+02    -0.2829     -0.488     -0.708    25.0634   997.0370 2.2711e-25 0.0000e+00
     -0.498     7.9068     95.780      1.074   1.075094    -0.1102     -2.330 -1240.7455 4.8915e+02    -0.3069     -0.488     -0.708    25.0583   997.0383 2.4982e-24 0.0000e+00
     -0.498     7.9067     95.778      1.061   1.062525    -0.1014     -2.331 -1240.7455 3.1911e+02    -0.2907     -0.489     -0.709    25.0536   997.0395 2.7480e-23 0.0000e+00
     -0.498     7.9060     95.768      1.050   1.050986    -0.1074     -2.331 -1240.7455 2.2175e+02    -0.2836     -0.488     -0.708    25.0505   997.0402 3.0228e-22 0.0000e+00
     -0.498     7.9064     95.772      1.061   1.062298    -0.1137     -2.331 -1240.7455 2.2442e+02    -0.2857     -0.488     -0.708    25.0498   997.0405 3.3250e-21 0.0000e+00
     -0.498     7.9070     95.779      1.071   1.072570    -0.1087     -2.331 -1240.7455 3.2185e+02    -0.1857     -0.488     -0.708    25.0498   997.0404 3.6576e-20 0.0000e+00
     -0.498     7.9067     95.778      1.048   1.048464    -0.1079     -2.331 -1240.7455 4.8054e+02    -0.0569     -0.488     -0.708    25.0492   997.0405 4.0233e-19 0.0000e+00
     -0.498     7.9065     95.778      1.023   1.024271    -0.1204     -2.331 -1240.7455 5.0160e+02    -0.0397     -0.488     -0.707    25.0483   997.0408 4.4256e-18 0.0000e+00
     -0.498     7.9058     95.772      1.032   1.033496    -0.1306     -2.331 -1240.7455 3.7629e+02    -0.0432     -0.489     -0.708    25.0478   997.0410 4.8682e-17 0.0000e+00
     -0.498     7.9047     95.761      1.032   1.033287    -0.1270     -2.331 -1240.7455 2.6925e+02     0.0324     -0.488     -0.709    25.0483   997.0409 5.3550e-16 0.0000e+00
     -0.498     7.9042     95.759      1.020   1.021748    -0.1202     -2.331 -1240.7455 2.7094e+02     0.1529     -0.488     -0.708    25.0492   997.0406 5.8905e-15 0.0000e+00
     -0.498     7.9046     95.766      1.019   1.020698    -0.1181     -2.331 -1240.7455 3.0853e+02     0.2014     -0.489     -0.709    25.0507   997.0402 6.4796e-14 0.0000e+00
     -0.498     7.9055     95.778      1.019   1.020592    -0.1186     -2.331 -1240.7455 2.8320e+02     0.1600     -0.488     -0.708    25.0520   997.0399 7.1275e-13 0.0000e+00
     -0.498     7.9051     95.775      1.019   1.020471    -0.1184     -2.331 -1240.7455 2.5270e+02     0.1440     -0.488     -0.708    25.0533   997.0395 7.8403e-12 0.0000e+00
     -0.498     7.9037     95.760      1.018   1.019233    -0.1144     -2.331 -1240.7455 2.5166e+02     0.1719     -0.488     -0.707    25.0546   997.0392 8.6243e-11 0.0000e+00
     -0.498     7.9035     95.759      1.004   1.005628    -0.1136     -2.331 -1240.7455 2.5331e+02     0.1703     -0.488     -0.708    25.0558   997.0388 9.4868e-10 0.0000e+00
     -0.498     7.9048     95.772      0.982   0.982684    -0.1177     -2.331 -1240.7455 2.7101e+02     0.1566     -0.488     -0.708    25.0572   997.0385 1.0435e-08 0.0000e+00
     -0.498     7.9064     95.784      0.995   0.995262    -0.1129     -2.331 -1240.7455 3.5982e+02     0.1706     -0.488     -0.708    25.0586   997.0382 1.1479e-07 0.0000e+00
     -0.498     7.9079     95.793      1.030   1.030982    -0.1064     -2.331 -1240.7455 5.0862e+02     0.0111     -0.488     -0.708    25.0601   997.0379 2.4124e-07 0.0000e+00
     -0.498     7.9076     95.783      1.034   1.034420    -0.1093     -2.331 -1240.7455 6.1720e+02    -0.3297     -0.489     -0.709    25.0609   997.0376 5.1785e-07 0.0000e+00
     -0.498     7.9070     95.774      1.036   1.036829    -0.1132     -2.331 -1240.7455 5.6557e+02    -0.5083     -0.488     -0.708    25.0596   997.0379      0.000 0.0000e+00
     -0.498     7.9072     95.776      1.059   1.060105    -0.1182     -2.331 -1240.7455 3.7164e+02    -0.5098     -0.488     -0.708    25.0547   997.0392      0.000 0.0000e+00
     -0.498     7.9070     95.776      1.061   1.062412    -0.1267     -2.331 -1240.7455 2.5314e+02    -0.5129     -0.488     -0.708    25.0482   997.0408      0.001 0.0000e+00
     -0.497     7.9066     95.775      1.063   1.064721    -0.1301     -2.331 -1240.7452 2.5764e+02    -0.5455     -0.488     -0.707    25.0444   997.0418      0.001 0.0000e+00
     -0.497     7.9058     95.768      1.087   1.088026    -0.1236     -2.331 -1240.7427 3.7646e+02    -0.5427     -0.488     -0.707    25.0438   997.0420      0.000 0.0000e+00
     -0.497     7.9057     95.768      1.089   1.090749    -0.1176     -2.331 -1240.7146 4.5626e+02    -0.4789     -0.488     -0.707    25.0444   997.0418 4.1471e-07 0.0000e+00
     -0.497     7.9072     95.790      1.096   1.097639    -0.1180     -2.331 -1240.4060 2.9562e+02    -0.4631     -0.487     -0.706    25.0459   997.0414      0.000 0.0000e+00
     -0.497     7.9084     95.807      1.170   1.171334    -0.1202     -2.326 -1237.0109 1.4842e+02    -0.5157     -0.488     -0.707    25.0480   997.0409      0.000 0.0000e+00
     -0.497     7.9078     95.802      1.599   1.601632    -0.1186     -2.278 -1199.6650 1.5537e+02    -0.5249     -0.488     -0.707    25.0492   997.0406      0.001 0.0000e+00
     -0.497     7.9074     95.798      5.914   5.920171    -0.1155     -1.743  -788.8597 3.3608e+02    -0.4758     -0.487     -0.706    25.0503   997.0403      0.006 0.0000e+00
     -0.497     7.9101     95.799     15.981  15.988533    -0.0999     -0.008   -84.4638 6.7709e+02    -0.0855     -0.488     -0.708    25.0515   997.0398      0.024 0.0000e+00
     -0.497     7.9182     95.801     27.375  27.356676    -0.0691      2.566   225.4256 8.9071e+02     0.6552     -0.486     -0.705    25.0539   997.0395      0.057 0.0000e+00
     -0.495     7.9309     95.814     35.565  35.491004    -0.0468      4.766   204.3005 9.3146e+02     1.0734     -0.489     -0.710    25.0550   997.0389      0.102 0.0000e+00
     -0.476     7.9441     95.837     38.585  38.452212    -0.0382      6.163   196.7411 9.4304e+02     1.1365     -0.484     -0.701    25.0590   997.0384      0.152 0.0000e+00
     -0.423     7.9579     95.887     38.594  38.411311    -0.0252      6.968   189.6061 9.3885e+02     1.5157     -0.421     -0.612    25.0535   997.0432      0.200 0.0000e+00
     -0.347     7.9775     96.025     38.459  38.233801     0.1969      7.403   184.1111 9.2025e+02     5.7238     -0.340     -0.494    24.9904   997.0632      0.237 0.0000e+00
     -0.265     8.0075     96.307     38.406  38.146750     0.6273      7.641   179.0855 9.1881e+02    13.4107     -0.262     -0.380    24.8945   997.0911      0.256 0.0000e+00
     -0.184     8.0479     96.732     38.469  38.183932     0.8693      7.765   176.1644 9.4460e+02    17.5747     -0.179     -0.258    24.8183   997.1114      0.255 0.0000e+00
     -0.113     8.0930     97.230     38.607  38.302459     0.9042      7.814   174.6035 9.6283e+02    17.6612     -0.103     -0.150    24.7536   997.1277      0.235 0.0000e+00
     -0.060     8.1381     97.745     38.691  38.373751     1.0061      7.826   172.6884 9.5796e+02    14.3898     -0.051     -0.074    24.6976   997.1423      0.202 0.0000e+00
     -0.021     8.1806     98.245     38.734  38.411132     1.1811      7.829   170.3022 9.6046e+02     8.3357     -0.023     -0.033    24.6527   997.1537      0.163 0.0000e+00
      0.016     8.2171     98.684     38.759  38.437037     1.2689      7.830   167.3490 9.7664e+02     5.0239      0.017      0.026    24.6197   997.1623      0.125 0.0000e+00
      0.047     8.2447     99.019     38.753  38.433054     1.2700      7.829   165.5464 9.8746e+02     4.7272      0.055      0.080    24.5968   997.1683      0.091 0.0000e+00
      0.064     8.2621     99.230     38.746  38.426453     1.2725      7.821   165.2847 9.9371e+02     4.7155      0.064      0.092    24.5800   997.1727      0.064 0.0000e+00
      0.071     8.2688     99.310     38.741  38.420704     1.2830      7.808   165.2169 9.9865e+02     4.6853      0.071      0.103    24.5752   997.1738      0.042 0.0000e+00
      0.075     8.2674     99.294     38.747  38.427014     1.2839      7.794   164.9848 9.9711e+02     4.6575      0.075      0.110    24.5783   997.1731      0.023 0.0000e+00
      0.076     8.2621     99.233     38.759  38.439274     1.2752      7.781   164.4572 9.9288e+02     4.6743      0.073      0.106    24.5810   997.1724      0.011 0.0000e+00
      0.077     8.2546     99.145     38.760  38.441986     1.2723      7.767   163.7419 9.8835e+02     4.6923      0.074      0.109    24.5815   997.1723      0.005 0.0000e+00
      0.077     8.2454     99.036     38.777  38.459805     1.2744      7.754   163.2196 9.8149e+02     4.7104      0.075      0.109    24.5805   997.1725      0.002 0.0000e+00
      0.076     8.2362     98.927     38.781  38.464289     1.2750      7.743   162.9601 9.7443e+02     4.7298      0.074      0.108    24.5810   997.1724      0.001 0.0000e+00
      0.076     8.2295     98.847     38.749  38.432723     1.2706      7.732   162.8422 9.6477e+02     4.6976      0.075      0.109    24.5823   997.1721      0.001 0.0000e+00
      0.077     8.2236     98.777     38.711  38.395532     1.2655      7.721   162.8269 9.3010e+02     4.6156      0.075      0.109    24.5837   997.1717      0.000 0.0000e+00
      0.077     8.2177     98.705     38.647  38.332006     1.2654      7.710   162.7749 8.0489e+02     4.5255      0.075      0.109    24.5850   997.1714 2.0524e-08 0.0000e+00
      0.077     8.2115     98.625     38.553  38.235934     1.2688      7.700   162.3849 5.8296e+02     4.4597      0.075      0.109    24.5852   997.1713 2.2576e-07 0.0000e+00
      0.077     8.2049     98.540     38.506  38.186091     1.2721      7.691   161.8967 4.3502e+02     4.4432      0.075      0.109    24.5861   997.1711 5.9831e-07 0.0000e+00
      0.076     8.2002     98.481     38.558  38.237179     1.2702      7.684   161.8629 5.0963e+02     4.4562      0.075      0.109    24.5873   997.1708      0.000 0.0000e+00
      0.076     8.1945     98.419     38.664  38.345815     1.2632      7.678   162.0622 7.2158e+02     4.4868      0.075      0.109    24.5871   997.1708      0.000 0.0000e+00
