* Sea-Bird SBE19plus  Data File:
* FileName = C:\DATA\091119_fcr50_0_0003.hex
* Software version 2.8.0.119 SB_Terminal.dll
* Temperature SN = 7809
* Conductivity SN = 7809
* System UpLoad Time = Sep 11 2019 16:22:05
* <ApplicationData>
* <Seaterm232>
* <SoftwareVersion>2.8.0.119</SoftwareVersion>
* <BuildDate>07-Nov-2018</BuildDate>
* </Seaterm232>
* </ApplicationData>
* cast   3 11 Sep 2019 11:01:03 samples 968 to 1669, avg = 1, stop = mag switch
# nquan = 16
# nvalues = 622                         
# units = specified
# name 0 = depFM: Depth [fresh water, m]
# name 1 = sbeox0Mg/L: Oxygen, SBE 43 [mg/l]
# name 2 = sbeox0PS: Oxygen, SBE 43 [% saturation]
# name 3 = specc: Specific Conductance [uS/cm]
# name 4 = c0uS/cm: Conductivity [uS/cm]
# name 5 = flECO-AFL: Fluorescence, WET Labs ECO-AFL/FL [mg/m^3]
# name 6 = ph: pH
# name 7 = orp: Oxidation Reduction Potential [mV]
# name 8 = par/sat/log: PAR/Logarithmic, Satlantic
# name 9 = turbWETntu0: Turbidity, WET Labs ECO [NTU]
# name 10 = prdM: Pressure, Strain Gauge [db]
# name 11 = prdE: Pressure, Strain Gauge [psi]
# name 12 = tv290C: Temperature [ITS-90, deg C]
# name 13 = density00: Density [density, kg/m^3]
# name 14 = dz/dtM: Descent Rate [m/s]
# name 15 = flag:  0.000e+00
# span 0 =     -0.494,      5.293       
# span 1 =     0.0743,     9.5514       
# span 2 =      0.695,    114.583       
# span 3 =      2.028,     98.627       
# span 4 =   1.994462,  79.942426       
# span 5 =    -0.1039,    10.4520       
# span 6 =      6.285,      7.761       
# span 7 =   -27.3777,   309.2560       
# span 8 = 1.2352e-01, 1.4359e+03       
# span 9 =    -3.2449,    32.8968       
# span 10 =     -0.485,      5.191      
# span 11 =     -0.704,      7.529      
# span 12 =    12.3439,    25.1440      
# span 13 =   997.0278,   999.5063      
# span 14 =     -0.030,      0.184      
# span 15 = 0.0000e+00, 0.0000e+00      
# interval = seconds: 0.25
# start_time = Sep 11 2019 11:01:03 [Instrument's time stamp, header]
# bad_flag = -9.990e-29
# <Sensors count="9" >
#   <sensor Channel="1" >
#     <!-- Count, Temperature -->
#     <TemperatureSensor SensorID="58" >
#       <SerialNumber>7809</SerialNumber>
#       <CalibrationDate>24-Mar-19</CalibrationDate>
#       <A0>1.21792325e-003</A0>
#       <A1>2.81669265e-004</A1>
#       <A2>-1.60333336e-006</A2>
#       <A3>1.98414625e-007</A3>
#       <Slope>1.00000000</Slope>
#       <Offset>0.0000</Offset>
#     </TemperatureSensor>
#   </sensor>
#   <sensor Channel="2" >
#     <!-- Frequency 0, Conductivity -->
#     <ConductivitySensor SensorID="3" >
#       <SerialNumber>7809</SerialNumber>
#       <CalibrationDate>24-Mar-19</CalibrationDate>
#       <UseG_J>1</UseG_J>
#       <!-- Cell const and series R are applicable only for wide range sensors. -->
#       <SeriesR>0.0000</SeriesR>
#       <CellConst>2000.0000</CellConst>
#       <ConductivityType>0</ConductivityType>
#       <Coefficients equation="0" >
#         <A>0.00000000e+000</A>
#         <B>0.00000000e+000</B>
#         <C>0.00000000e+000</C>
#         <D>0.00000000e+000</D>
#         <M>0.0</M>
#         <CPcor>-9.57000000e-008</CPcor>
#       </Coefficients>
#       <Coefficients equation="1" >
#         <G>-1.00589325e+000</G>
#         <H>1.26816302e-001</H>
#         <I>-1.51560448e-004</I>
#         <J>2.67137274e-005</J>
#         <CPcor>-9.57000000e-008</CPcor>
#         <CTcor>3.2500e-006</CTcor>
#         <!-- WBOTC not applicable unless ConductivityType = 1. -->
#         <WBOTC>0.00000000e+000</WBOTC>
#       </Coefficients>
#       <Slope>1.00000000</Slope>
#       <Offset>0.00000</Offset>
#     </ConductivitySensor>
#   </sensor>
#   <sensor Channel="3" >
#     <!-- Count, Pressure, Strain Gauge -->
#     <PressureSensor SensorID="46" >
#       <SerialNumber>7809</SerialNumber>
#       <CalibrationDate>11-Mar-19</CalibrationDate>
#       <PA0>4.56561833e-002</PA0>
#       <PA1>4.85095118e-004</PA1>
#       <PA2>-2.88327090e-012</PA2>
#       <PTEMPA0>-5.48784562e+001</PTEMPA0>
#       <PTEMPA1>5.53756816e+001</PTEMPA1>
#       <PTEMPA2>-5.86727098e-001</PTEMPA2>
#       <PTCA0>5.25246745e+005</PTCA0>
#       <PTCA1>1.22304214e+001</PTCA1>
#       <PTCA2>-3.56745036e-001</PTCA2>
#       <PTCB0>2.51668750e+001</PTCB0>
#       <PTCB1>3.75000000e-004</PTCB1>
#       <PTCB2>0.00000000e+000</PTCB2>
#       <Offset>0.000000</Offset>
#     </PressureSensor>
#   </sensor>
#   <sensor Channel="4" >
#     <!-- A/D voltage 0, Oxygen, SBE 43 -->
#     <OxygenSensor SensorID="38" >
#       <SerialNumber>0434</SerialNumber>
#       <CalibrationDate>13-Apr-19</CalibrationDate>
#       <Use2007Equation>1</Use2007Equation>
#       <CalibrationCoefficients equation="0" >
#         <!-- Coefficients for Owens-Millard equation. -->
#         <Boc>0.0000</Boc>
#         <Soc>0.0000e+000</Soc>
#         <offset>0.0000</offset>
#         <Pcor>0.00e+000</Pcor>
#         <Tcor>0.0000</Tcor>
#         <Tau>0.0</Tau>
#       </CalibrationCoefficients>
#       <CalibrationCoefficients equation="1" >
#         <!-- Coefficients for Sea-Bird equation - SBE calibration in 2007 and later. -->
#         <Soc>4.2007e-001</Soc>
#         <offset>-0.6109</offset>
#         <A>-4.3656e-003</A>
#         <B> 1.7017e-004</B>
#         <C>-2.5341e-006</C>
#         <D0> 2.5826e+000</D0>
#         <D1> 1.92634e-004</D1>
#         <D2>-4.64803e-002</D2>
#         <E> 3.6000e-002</E>
#         <Tau20> 1.1800</Tau20>
#         <H1>-3.3000e-002</H1>
#         <H2> 5.0000e+003</H2>
#         <H3> 1.4500e+003</H3>
#       </CalibrationCoefficients>
#     </OxygenSensor>
#   </sensor>
#   <sensor Channel="5" >
#     <!-- A/D voltage 1, PAR/Logarithmic, Satlantic -->
#     <PARLog_SatlanticSensor SensorID="76" >
#       <SerialNumber>1122</SerialNumber>
#       <CalibrationDate>08-May-2019</CalibrationDate>
#       <a0>9.7456e-001</a0>
#       <a1>8.1640e-001</a1>
#       <Im>1.3589e+000</Im>
#       <Multiplier>1.0000e+000</Multiplier>
#     </PARLog_SatlanticSensor>
#   </sensor>
#   <sensor Channel="6" >
#     <!-- A/D voltage 2, pH -->
#     <pH_Sensor SensorID="43" >
#       <SerialNumber>0363</SerialNumber>
#       <CalibrationDate>15-Apr-19</CalibrationDate>
#       <Slope>4.5952</Slope>
#       <Offset>2.5370</Offset>
#     </pH_Sensor>
#   </sensor>
#   <sensor Channel="7" >
#     <!-- A/D voltage 3, Oxidation Reduction Potential -->
#     <OxidationReductionPotentialSensor SensorID="41" >
#       <SerialNumber>0363</SerialNumber>
#       <CalibrationDate>15-Apr-19</CalibrationDate>
#       <B>2.499480</B>
#       <M>-0.496195</M>
#       <Offset>0.0</Offset>
#     </OxidationReductionPotentialSensor>
#   </sensor>
#   <sensor Channel="8" >
#     <!-- A/D voltage 4, Fluorometer, WET Labs ECO-AFL/FL -->
#     <FluoroWetlabECO_AFL_FL_Sensor SensorID="20" >
#       <SerialNumber>FLNTURT-2496</SerialNumber>
#       <CalibrationDate>08-May-2019</CalibrationDate>
#       <ScaleFactor>5.00000000e+001</ScaleFactor>
#       <!-- Dark output -->
#       <Vblank>0.0550</Vblank>
#     </FluoroWetlabECO_AFL_FL_Sensor>
#   </sensor>
#   <sensor Channel="9" >
#     <!-- A/D voltage 5, Turbidity Meter, WET Labs, ECO-NTU -->
#     <TurbidityMeter SensorID="67" >
#       <SerialNumber>FLNTURT-2496</SerialNumber>
#       <CalibrationDate>08-May-2019</CalibrationDate>
#       <ScaleFactor>189.000000</ScaleFactor>
#       <!-- Dark output -->
#       <DarkVoltage>0.071000</DarkVoltage>
#     </TurbidityMeter>
#   </sensor>
# </Sensors>
# datcnv_date = Sep 16 2019 11:28:27, 7.26.7.129 [datcnv_vars = 15]
# datcnv_in = C:\Users\CareyLab\Desktop\CTD_2019\091119_fcr30.hex C:\DATA\SBE19plusV2_7809.xmlcon
# datcnv_skipover = 0
# datcnv_ox_hysteresis_correction = yes
# datcnv_ox_tau_correction = yes
# filter_date = Sep 16 2019 11:29:05, 7.26.7.129
# filter_in = C:\Users\CareyLab\Desktop\CTD_2019\091119_fcr30.cnv
# filter_low_pass_tc_A = 0.030
# filter_low_pass_tc_B = 0.150
# filter_low_pass_A_vars = prdM prdE tv290C density00
# filter_low_pass_B_vars = depFM sbeox0Mg/L sbeox0PS specc c0uS/cm flECO-AFL ph orp par/sat/log turbWETntu0 dz/dtM
# alignctd_date = Sep 16 2019 11:29:40, 7.26.7.129
# alignctd_in = C:\Users\CareyLab\Desktop\CTD_2019\091119_fcr30.cnv
# alignctd_adv = sbeox0Mg/L 1.000, sbeox0PS 1.000, specc 1.000, c0uS/cm 1.000, flECO-AFL 1.000, ph 1.000, orp 1.000, turbWETntu0 1.000, dz/dtM 1.000                                                                                 
# file_type = ascii
*END*
     -0.494     8.0908     96.420      2.028   1.994462     0.0073      6.285   309.2560 4.5391e+02    -0.0814     -0.484     -0.702    24.1670   997.2633 1.0703e-11 0.0000e+00
     -0.494     8.0913     96.425      2.070   2.036396     0.0185      6.290   306.0595 3.3584e+02    -0.1059     -0.485     -0.703    24.1669   997.2634 1.1773e-10 0.0000e+00
     -0.494     8.0900     96.410      2.096   2.062056     0.0123      6.292   303.9415 3.6296e+02    -0.1305     -0.485     -0.703    24.1670   997.2633 1.2950e-09 0.0000e+00
     -0.494     8.0880     96.386      2.086   2.051256    -0.0244      6.292   301.9730 5.6100e+02    -0.2149     -0.485     -0.703    24.1670   997.2633 1.4245e-08 0.0000e+00
     -0.494     8.0875     96.381      2.067   2.032551    -0.0784      6.294   299.8119 7.5078e+02    -0.4053     -0.485     -0.703    24.1669   997.2633 1.5670e-07 0.0000e+00
     -0.494     8.0881     96.387      2.124   2.089345    -0.1039      6.296   298.0301 8.3530e+02    -0.5323     -0.485     -0.703    24.1674   997.2632      0.000 0.0000e+00
     -0.494     8.0876     96.382      2.268   2.231030    -0.0899      6.297   293.7659 8.4483e+02    -0.5699     -0.485     -0.704    24.1671   997.2633      0.000 0.0000e+00
     -0.494     8.0873     96.381      2.841   2.795204     0.0307      6.301   261.1592 8.2642e+02    -0.7615     -0.485     -0.703    24.1675   997.2632      0.000 0.0000e+00
     -0.494     8.0854     96.389      7.634   7.516713     0.2437      6.331   195.6312 8.2432e+02    -1.0789     -0.485     -0.703    24.1668   997.2634      0.002 0.0000e+00
     -0.494     8.0730     96.390     18.423  18.177429     0.3620      6.464   148.7454 8.6982e+02    -1.1966     -0.485     -0.704    24.1681   997.2629      0.010 0.0000e+00
     -0.494     8.0445     96.379     29.338  29.045251     0.3853      6.733   136.0779 9.3858e+02    -1.2012     -0.485     -0.703    24.1660   997.2638      0.028 0.0000e+00
     -0.493     8.0095     96.357     35.818  35.600896     0.5078      7.051   131.5210 9.8561e+02    -1.7243     -0.485     -0.704    24.1697   997.2624      0.054 0.0000e+00
     -0.487     7.9805     96.338     38.088  37.985698     0.7252      7.317   128.9245 8.8186e+02    -2.7038     -0.485     -0.703    24.1640   997.2645      0.084 0.0000e+00
     -0.462     7.9608     96.331     38.338  38.332615     0.8374      7.496   129.0327 6.1622e+02    -3.2449     -0.461     -0.669    24.2171   997.2552      0.117 0.0000e+00
     -0.417     7.9492     96.345     38.338  38.399087     0.8499      7.603   129.8172 5.1221e+02    -3.1878     -0.409     -0.594    24.4375   997.2039      0.147 0.0000e+00
     -0.367     7.9464     96.400     38.246  38.345161     0.8249      7.670   130.4089 7.5130e+02    -1.8493     -0.359     -0.520    24.6932   997.1417      0.171 0.0000e+00
     -0.316     7.9562     96.534     38.146  38.251954     0.7613      7.713   130.1644 1.0820e+03     0.6165     -0.310     -0.450    24.8776   997.0955      0.184 0.0000e+00
     -0.265     7.9780     96.764     38.070  38.160814     0.7304      7.734   129.1840 1.2513e+03     1.9816     -0.260     -0.377    25.0010   997.0640      0.184 0.0000e+00
     -0.214     8.0058     97.063     37.994  38.068377     0.7457      7.745   128.1052 1.3163e+03     2.1369     -0.209     -0.303    25.0844   997.0429      0.174 0.0000e+00
     -0.167     8.0354     97.401     37.957  38.022952     0.8423      7.753   127.6177 1.3736e+03     2.6906     -0.160     -0.233    25.1417   997.0282      0.161 0.0000e+00
     -0.128     8.0647     97.751     37.929  37.992436     1.0049      7.758   127.6776 1.4143e+03     3.7609     -0.123     -0.178    25.1440   997.0278      0.150 0.0000e+00
     -0.098     8.0937     98.103     37.890  37.953308     1.0919      7.760   127.7104 1.4359e+03     4.3612     -0.095     -0.138    25.1122   997.0360      0.142 0.0000e+00
     -0.072     8.1240     98.475     37.865  37.930720     1.0965      7.761   127.4988 1.4342e+03     4.4427     -0.073     -0.106    25.0875   997.0426      0.138 0.0000e+00
     -0.040     8.1568     98.876     37.843  37.909755     1.0953      7.761   127.0977 1.4104e+03     4.4519     -0.042     -0.061    25.0786   997.0449      0.138 0.0000e+00
     -0.001     8.1907     99.286     37.824  37.890255     1.1123      7.758   126.9050 1.3902e+03     4.4395      0.000      0.001    25.0767   997.0455      0.141 0.0000e+00
      0.039     8.2217     99.658     37.820  37.885363     1.1452      7.752   126.9752 1.3822e+03     4.4564      0.040      0.057    25.0773   997.0456      0.143 0.0000e+00
      0.078     8.2469     99.958     37.851  37.914081     1.1639      7.744   126.9139 1.3013e+03     4.4593      0.075      0.110    25.0803   997.0450      0.139 0.0000e+00
      0.118     8.2694    100.215     37.927  37.983581     1.1647      7.736   126.4216 1.0458e+03     4.4423      0.115      0.167    25.0833   997.0444      0.131 0.0000e+00
      0.154     8.2939    100.459     37.992  38.027434     1.1893      7.726   125.5827 7.7019e+02     4.4477      0.155      0.226    25.0826   997.0447      0.122 0.0000e+00
      0.180     8.3267    100.758     38.005  37.999932     1.2452      7.714   124.8585 6.5809e+02     4.4584      0.179      0.260    25.0797   997.0456      0.115 0.0000e+00
      0.200     8.3580    101.018     38.022  37.968373     1.2765      7.702   124.5488 5.9759e+02     4.4404      0.193      0.279    25.0775   997.0463      0.106 0.0000e+00
      0.223     8.3529    100.846     38.062  37.963168     1.2823      7.693   124.5061 6.2450e+02     4.4266      0.218      0.316    25.0761   997.0468      0.094 0.0000e+00
      0.252     8.2987    100.099     38.074  37.936928     1.3413      7.685   124.0832 8.3010e+02     4.4881      0.247      0.360    25.0517   997.0532      0.081 0.0000e+00
      0.281     8.2077     98.926     38.074  37.904963     1.4433      7.677   119.6078 8.8355e+02     4.5620      0.279      0.406    24.9898   997.0691      0.068 0.0000e+00
      0.300     8.0927     97.482     38.087  37.894015     1.5012      7.668   111.1773 7.2558e+02     4.5339      0.301      0.435    24.9206   997.0869      0.056 0.0000e+00
      0.305     7.9759     96.034     38.079  37.867993     1.5126      7.660   105.8673 6.9852e+02     4.4754      0.300      0.435    24.8607   997.1023      0.046 0.0000e+00
      0.305     7.8803     94.854     38.067  37.844212     1.5029      7.652   104.4477 7.5657e+02     4.5101      0.298      0.432    24.8097   997.1153      0.039 0.0000e+00
      0.309     7.8178     94.084     38.091  37.860369     1.4874      7.644   103.5636 7.1214e+02     4.6258      0.300      0.436    24.7695   997.1255      0.037 0.0000e+00
      0.319     7.7883     93.718     38.109  37.872907     1.4819      7.637   102.9207 6.5840e+02     4.6949      0.309      0.449    24.7373   997.1337      0.038 0.0000e+00
      0.336     7.7721     93.516     38.108  37.868849     1.4802      7.629   102.6112 6.9057e+02     4.6897      0.330      0.479    24.7140   997.1398      0.040 0.0000e+00
      0.353     7.7451     93.186     38.116  37.874775     1.5269      7.622   102.4028 7.1462e+02     4.6284      0.350      0.506    24.6989   997.1436      0.040 0.0000e+00
      0.364     7.6953     92.583     38.125  37.881080     1.6312      7.615   102.1214 7.0299e+02     4.5111      0.358      0.519    24.6898   997.1459      0.036 0.0000e+00
      0.370     7.6202     91.676     38.127  37.881601     1.7012      7.608   101.9615 7.0101e+02     4.4512      0.363      0.527    24.6840   997.1475      0.029 0.0000e+00
      0.373     7.5205     90.474     38.127  37.881081     1.7138      7.603   101.9321 6.6996e+02     4.4287      0.366      0.531    24.6796   997.1486      0.020 0.0000e+00
      0.376     7.4007     89.030     38.122  37.874776     1.7144      7.598   101.9387 6.2775e+02     4.4022      0.368      0.533    24.6766   997.1494      0.014 0.0000e+00
      0.379     7.2787     87.561     38.117  37.868849     1.7520      7.593   102.0409 6.3361e+02     4.4258      0.371      0.539    24.6746   997.1499      0.010 0.0000e+00
      0.382     7.1825     86.404     38.121  37.872897     1.8300      7.588   102.2217 6.3715e+02     4.4522      0.374      0.544    24.6723   997.1505      0.007 0.0000e+00
      0.384     7.1292     85.763     38.107  37.860241     1.8770      7.583   102.4042 5.9118e+02     4.4591      0.376      0.546    24.6706   997.1509      0.006 0.0000e+00
      0.384     7.1213     85.670     38.089  37.842772     1.8875      7.578   102.6118 5.4790e+02     4.4437      0.377      0.547    24.6695   997.1513      0.007 0.0000e+00
      0.383     7.1520     86.040     38.098  37.852122     1.9131      7.572   102.7532 5.3100e+02     4.4300      0.376      0.545    24.6688   997.1514      0.008 0.0000e+00
      0.383     7.2063     86.694     38.092  37.846341     1.9436      7.565   102.7375 5.3512e+02     4.4576      0.374      0.543    24.6689   997.1513      0.009 0.0000e+00
      0.387     7.2722     87.489     38.082  37.836347     1.9520      7.557   102.6800 5.4862e+02     4.4830      0.378      0.548    24.6695   997.1512      0.009 0.0000e+00
      0.394     7.3440     88.354     38.103  37.858242     1.9546      7.549   102.7464 5.5510e+02     4.5075      0.387      0.561    24.6702   997.1510      0.008 0.0000e+00
      0.400     7.4151     89.213     38.100  37.857162     1.9496      7.542   102.9376 5.5096e+02     4.5244      0.394      0.571    24.6708   997.1510      0.005 0.0000e+00
      0.401     7.4756     89.945     38.064  37.823291     1.9342      7.536   103.0993 5.3913e+02     4.4899      0.395      0.572    24.6714   997.1509      0.002 0.0000e+00
      0.397     7.5146     90.417     38.068  37.829576     1.9322      7.530   103.2386 5.2437e+02     4.4510      0.389      0.565    24.6725   997.1505     -0.002 0.0000e+00
      0.393     7.5299     90.607     38.106  37.869671     1.9349      7.524   103.4166 5.0674e+02     4.4478      0.384      0.557    24.6735   997.1502     -0.004 0.0000e+00
      0.391     7.5310     90.626     38.098  37.863751     1.9231      7.518   103.6172 4.9645e+02     4.4834      0.382      0.554    24.6749   997.1498     -0.004 0.0000e+00
      0.391     7.5315     90.637     38.053  37.821467     1.9030      7.513   103.7717 5.1061e+02     4.5216      0.382      0.554    24.6772   997.1492     -0.003 0.0000e+00
      0.392     7.5422     90.776     38.030  37.802760     1.8910      7.507   103.8215 5.4402e+02     4.5162      0.384      0.557    24.6806   997.1484     -0.002 0.0000e+00
      0.392     7.5605     91.010     38.049  37.828007     1.8911      7.502   103.8759 5.5621e+02     4.4840      0.385      0.559    24.6840   997.1475     -0.002 0.0000e+00
      0.391     7.5743     91.190     38.089  37.872832     1.9043      7.498   103.9990 5.4567e+02     4.4599      0.383      0.557    24.6860   997.1471     -0.002 0.0000e+00
      0.390     7.5768     91.230     38.111  37.900410     1.9285      7.494   104.1911 5.2753e+02     4.4535      0.382      0.555    24.6891   997.1462     -0.003 0.0000e+00
