* Sea-Bird SBE19plus  Data File:
* FileName = C:\DATA\20180917_fcr_0001.hex
* Software version 2.6.3.104 SB_Terminal.dll
* Temperature SN = 7809
* Conductivity SN = 7809
* System UpLoad Time = Sep 17 2018 17:51:15
* <ApplicationData>
* <Seaterm232>
* <SoftwareVersion>2.6.3.104</SoftwareVersion>
* <BuildDate>30-Jun-2017</BuildDate>
* </Seaterm232>
* </ApplicationData>
* cast   1 17 Sep 2018 14:39:31 samples 1 to 502, avg = 1, stop = mag switch
# nquan = 15
# nvalues = 358                         
# units = specified
# name 0 = depFM: Depth [fresh water, m]
# name 1 = dz/dtM: Descent Rate [m/s]
# name 2 = sbeox0Mg/L: Oxygen, SBE 43 [mg/l]
# name 3 = sbeox0PS: Oxygen, SBE 43 [% saturation]
# name 4 = specc: Specific Conductance [uS/cm]
# name 5 = c0uS/cm: Conductivity [uS/cm]
# name 6 = flECO-AFL: Fluorescence, WET Labs ECO-AFL/FL [mg/m^3]
# name 7 = ph: pH
# name 8 = orp: Oxidation Reduction Potential [mV]
# name 9 = par/sat/log: PAR/Logarithmic, Satlantic
# name 10 = turbWETntu0: Turbidity, WET Labs ECO [NTU]
# name 11 = prdM: Pressure, Strain Gauge [db]
# name 12 = prdE: Pressure, Strain Gauge [psi]
# name 13 = tv290C: Temperature [ITS-90, deg C]
# name 14 = flag:  0.000e+00
# span 0 =     -0.602,      2.465       
# span 1 =     -0.185,      0.152       
# span 2 =     4.7747,     8.3479       
# span 3 =     55.173,     96.529       
# span 4 =      0.784,     36.535       
# span 5 =   0.741960,  34.735657       
# span 6 =    -0.1863,     5.3338       
# span 7 =      6.208,      7.634       
# span 8 =   175.7722,   298.8318       
# span 9 = 4.9402e+00, 1.5249e+02       
# span 10 =    -0.2477,     9.4818      
# span 11 =     -0.592,      2.419      
# span 12 =     -0.859,      3.508      
# span 13 =    21.3469,    22.5694      
# span 14 = 0.0000e+00, 0.0000e+00      
# interval = seconds: 0.25
# start_time = Sep 17 2018 14:39:31 [Instrument's time stamp, header]
# bad_flag = -9.990e-29
# <Sensors count="9" >
#   <sensor Channel="1" >
#     <!-- Count, Temperature -->
#     <TemperatureSensor SensorID="58" >
#       <SerialNumber>7809</SerialNumber>
#       <CalibrationDate>09-Mar-18</CalibrationDate>
#       <A0>1.21093245e-003</A0>
#       <A1>2.84356597e-004</A1>
#       <A2>-1.94507398e-006</A2>
#       <A3>2.12806664e-007</A3>
#       <Slope>1.00000000</Slope>
#       <Offset>0.0000</Offset>
#     </TemperatureSensor>
#   </sensor>
#   <sensor Channel="2" >
#     <!-- Frequency 0, Conductivity -->
#     <ConductivitySensor SensorID="3" >
#       <SerialNumber>7809</SerialNumber>
#       <CalibrationDate>09-Mar-18</CalibrationDate>
#       <UseG_J>1</UseG_J>
#       <!-- Cell const and series R are applicable only for wide range sensors. -->
#       <SeriesR>0.0000</SeriesR>
#       <CellConst>2000.0000</CellConst>
#       <ConductivityType>0</ConductivityType>
#       <Coefficients equation="0" >
#         <A>0.00000000e+000</A>
#         <B>0.00000000e+000</B>
#         <C>0.00000000e+000</C>
#         <D>0.00000000e+000</D>
#         <M>0.0</M>
#         <CPcor>-9.57000000e-008</CPcor>
#       </Coefficients>
#       <Coefficients equation="1" >
#         <G>-1.00672082e+000</G>
#         <H>1.26906489e-001</H>
#         <I>-1.40584351e-004</I>
#         <J>2.47837121e-005</J>
#         <CPcor>-9.57000000e-008</CPcor>
#         <CTcor>3.2500e-006</CTcor>
#         <!-- WBOTC not applicable unless ConductivityType = 1. -->
#         <WBOTC>0.00000000e+000</WBOTC>
#       </Coefficients>
#       <Slope>1.00000000</Slope>
#       <Offset>0.00000</Offset>
#     </ConductivitySensor>
#   </sensor>
#   <sensor Channel="3" >
#     <!-- Count, Pressure, Strain Gauge -->
#     <PressureSensor SensorID="46" >
#       <SerialNumber>7809</SerialNumber>
#       <CalibrationDate>07-Mar-18</CalibrationDate>
#       <PA0>-4.08176359e-002</PA0>
#       <PA1>4.85188419e-004</PA1>
#       <PA2>-3.51168169e-012</PA2>
#       <PTEMPA0>-5.37806900e+001</PTEMPA0>
#       <PTEMPA1>5.36620721e+001</PTEMPA1>
#       <PTEMPA2>4.87214332e-002</PTEMPA2>
#       <PTCA0>5.25213435e+005</PTCA0>
#       <PTCA1>1.79532409e+000</PTCA1>
#       <PTCA2>-2.84353509e-001</PTCA2>
#       <PTCB0>2.51668750e+001</PTCB0>
#       <PTCB1>3.75000000e-004</PTCB1>
#       <PTCB2>0.00000000e+000</PTCB2>
#       <Offset>0.000000</Offset>
#     </PressureSensor>
#   </sensor>
#   <sensor Channel="4" >
#     <!-- A/D voltage 0, pH -->
#     <pH_Sensor SensorID="43" >
#       <SerialNumber>0363</SerialNumber>
#       <CalibrationDate>16-Mar-18</CalibrationDate>
#       <Slope>4.6194</Slope>
#       <Offset>2.5947</Offset>
#     </pH_Sensor>
#   </sensor>
#   <sensor Channel="5" >
#     <!-- A/D voltage 1, Oxidation Reduction Potential -->
#     <OxidationReductionPotentialSensor SensorID="41" >
#       <SerialNumber>0363</SerialNumber>
#       <CalibrationDate>16-Mar-18</CalibrationDate>
#       <B>2.499480</B>
#       <M>-0.496195</M>
#       <Offset>0.0</Offset>
#     </OxidationReductionPotentialSensor>
#   </sensor>
#   <sensor Channel="6" >
#     <!-- A/D voltage 2, Oxygen, SBE 43 -->
#     <OxygenSensor SensorID="38" >
#       <SerialNumber>0434</SerialNumber>
#       <CalibrationDate>13-Mar-18</CalibrationDate>
#       <Use2007Equation>1</Use2007Equation>
#       <CalibrationCoefficients equation="0" >
#         <!-- Coefficients for Owens-Millard equation. -->
#         <Boc>0.0000</Boc>
#         <Soc>0.0000e+000</Soc>
#         <offset>0.0000</offset>
#         <Pcor>0.00e+000</Pcor>
#         <Tcor>0.0000</Tcor>
#         <Tau>0.0</Tau>
#       </CalibrationCoefficients>
#       <CalibrationCoefficients equation="1" >
#         <!-- Coefficients for Sea-Bird equation - SBE calibration in 2007 and later. -->
#         <Soc>4.5718e-001</Soc>
#         <offset>-0.6113</offset>
#         <A>-4.0649e-003</A>
#         <B> 2.0945e-004</B>
#         <C>-3.3182e-006</C>
#         <D0> 2.5826e+000</D0>
#         <D1> 1.92634e-004</D1>
#         <D2>-4.64803e-002</D2>
#         <E> 3.6000e-002</E>
#         <Tau20> 1.2200</Tau20>
#         <H1>-3.3000e-002</H1>
#         <H2> 5.0000e+003</H2>
#         <H3> 1.4500e+003</H3>
#       </CalibrationCoefficients>
#     </OxygenSensor>
#   </sensor>
#   <sensor Channel="7" >
#     <!-- A/D voltage 3, PAR/Logarithmic, Satlantic -->
#     <PARLog_SatlanticSensor SensorID="76" >
#       <SerialNumber>1122</SerialNumber>
#       <CalibrationDate>22-Jun-2017</CalibrationDate>
#       <a0>9.6090e-001</a0>
#       <a1>8.0780e-001</a1>
#       <Im>1.3589e+000</Im>
#       <Multiplier>1.0000e+000</Multiplier>
#     </PARLog_SatlanticSensor>
#   </sensor>
#   <sensor Channel="8" >
#     <!-- A/D voltage 4, Fluorometer, WET Labs ECO-AFL/FL -->
#     <FluoroWetlabECO_AFL_FL_Sensor SensorID="20" >
#       <SerialNumber>FLNTURT-2496</SerialNumber>
#       <CalibrationDate>25-Jan-2017</CalibrationDate>
#       <ScaleFactor>5.30000000e+001</ScaleFactor>
#       <!-- Dark output -->
#       <Vblank>0.0560</Vblank>
#     </FluoroWetlabECO_AFL_FL_Sensor>
#   </sensor>
#   <sensor Channel="9" >
#     <!-- A/D voltage 5, Turbidity Meter, WET Labs, ECO-NTU -->
#     <TurbidityMeter SensorID="67" >
#       <SerialNumber>FLNTURT-2496</SerialNumber>
#       <CalibrationDate>25-Jan-2017</CalibrationDate>
#       <ScaleFactor>176.000000</ScaleFactor>
#       <!-- Dark output -->
#       <DarkVoltage>0.072000</DarkVoltage>
#     </TurbidityMeter>
#   </sensor>
# </Sensors>
# datcnv_date = Sep 17 2018 17:58:16, 7.26.7.114 [datcnv_vars = 14]
# datcnv_in = C:\DATA\20180917_fcr10.hex C:\DATA\SBE19plusV2_7809.xmlcon
# datcnv_skipover = 0
# datcnv_ox_hysteresis_correction = yes
# datcnv_ox_tau_correction = yes
# filter_date = Sep 17 2018 17:59:15, 7.26.7.114
# filter_in = C:\DATA\20180917_fcr10.cnv
# filter_low_pass_tc_A = 0.030
# filter_low_pass_tc_B = 0.150
# filter_low_pass_A_vars = prdM prdE tv290C
# filter_low_pass_B_vars = depFM dz/dtM sbeox0Mg/L sbeox0PS specc c0uS/cm flECO-AFL ph orp par/sat/log turbWETntu0
# alignctd_date = Sep 17 2018 17:59:41, 7.26.7.114
# alignctd_in = C:\DATA\20180917_fcr10.cnv
# alignctd_adv = dz/dtM 1.000, sbeox0Mg/L 1.000, sbeox0PS 1.000, specc 1.000, c0uS/cm 1.000, flECO-AFL 1.000, ph 1.000, orp 1.000, turbWETntu0 1.000                                                                                 
# file_type = ascii
*END*
     -0.599 2.1419e-07     8.3226     95.738      0.784   0.741960    -0.1686      6.210   225.4945 8.8816e+01    -0.1559     -0.587     -0.852    22.2994 0.0000e+00
     -0.599      0.000     8.3232     95.743      0.899   0.850873    -0.1648      6.209   231.9620 8.2604e+01    -0.1602     -0.587     -0.852    22.2994 0.0000e+00
     -0.599      0.000     8.3222     95.729      1.011   0.955928    -0.1616      6.208   237.0003 7.8279e+01    -0.1922     -0.588     -0.853    22.2993 0.0000e+00
     -0.599      0.000     8.3200     95.704      1.122   1.060975    -0.1666      6.209   237.1974 7.7814e+01    -0.2373     -0.587     -0.852    22.2989 0.0000e+00
     -0.599      0.003     8.3180     95.702      1.169   1.106378    -0.1698      6.223   241.3153 7.9390e+01    -0.2477     -0.587     -0.852    22.2981 0.0000e+00
     -0.599      0.009     8.3117     95.697      1.187   1.124407    -0.1731      6.262   252.7176 8.3553e+01    -0.2267     -0.587     -0.853    22.2964 0.0000e+00
     -0.599      0.014     8.3014     95.677      1.215   1.152132    -0.1787      6.321   263.3824 8.9304e+01    -0.2272     -0.587     -0.851    22.2955 0.0000e+00
     -0.597      0.014     8.2936     95.674      1.251   1.187952    -0.1733      6.370   281.6419 9.4770e+01    -0.2242     -0.589     -0.854    22.2940 0.0000e+00
     -0.587      0.009     8.2884     95.674      1.306   1.240435    -0.1631      6.394   298.8318 9.8000e+01    -0.2208     -0.580     -0.841    22.2957 0.0000e+00
     -0.572      0.002     8.2848     95.665      1.281   1.215977    -0.1660      6.404   290.2832 9.7370e+01    -0.2168     -0.554     -0.804    22.3342 0.0000e+00
     -0.570     -0.003     8.2841     95.670      1.273   1.209300    -0.1800      6.413   257.6957 9.5944e+01    -0.2056     -0.552     -0.801    22.4019 0.0000e+00
     -0.584     -0.004     8.2850     95.684      2.488   2.364564    -0.1863      6.447   231.0802 9.6562e+01    -0.2071     -0.573     -0.832    22.4515 0.0000e+00
     -0.597      0.001     8.2852     95.692      7.703   7.320102    -0.1771      6.523   244.4912 9.8012e+01    -0.2045     -0.590     -0.856    22.4825 0.0000e+00
     -0.602      0.011     8.2852     95.702     14.925  14.183902    -0.1701      6.615   262.8258 9.8596e+01    -0.2053     -0.592     -0.859    22.5013 0.0000e+00
     -0.598      0.023     8.2849     95.710     18.382  17.471202    -0.1748      6.710   264.6800 9.8886e+01    -0.2171     -0.591     -0.857    22.5049 0.0000e+00
     -0.581      0.035     8.2835     95.705     18.678  17.754702    -0.1783      6.820   269.8363 9.9826e+01    -0.1946     -0.575     -0.833    22.5036 0.0000e+00
     -0.557      0.042     8.2818     95.693     18.926  17.992472    -0.1768      6.930   270.7925 1.0070e+02    -0.1464     -0.542     -0.785    22.5058 0.0000e+00
     -0.542      0.044     8.2806     95.686     19.398  18.442037    -0.1748      7.023   268.2402 1.0106e+02    -0.1529     -0.526     -0.763    22.5122 0.0000e+00
     -0.539      0.041     8.2796     95.676     19.986  19.001520    -0.1723      7.102   260.5726 1.0108e+02    -0.1821     -0.529     -0.768    22.5189 0.0000e+00
     -0.536      0.036     8.2790     95.667     21.367  20.314306    -0.1743      7.173   246.3990 1.0113e+02    -0.1937     -0.530     -0.769    22.5238 0.0000e+00
     -0.526      0.031     8.2794     95.671     23.074  21.937287    -0.1802      7.252   239.8650 1.0156e+02    -0.2318     -0.516     -0.747    22.5282 0.0000e+00
     -0.514      0.028     8.2794     95.672     24.202  23.009832    -0.1798      7.350   249.1124 1.0228e+02    -0.2467     -0.502     -0.728    22.5318 0.0000e+00
     -0.505      0.026     8.2791     95.671     27.662  26.299848    -0.1787      7.454   264.0808 1.0337e+02    -0.2213     -0.495     -0.718    22.5328 0.0000e+00
     -0.498      0.024     8.2791     95.672     33.389  31.745047    -0.1850      7.535   266.5778 1.0457e+02    -0.2297     -0.486     -0.705    22.5317 0.0000e+00
     -0.496      0.022     8.2798     95.682     36.344  34.554064    -0.1825      7.585   243.2542 1.0556e+02    -0.2262     -0.485     -0.703    22.5313 0.0000e+00
     -0.494      0.022     8.2817     95.703     36.535  34.735657    -0.1665      7.612   206.2089 1.0659e+02    -0.2095     -0.488     -0.708    22.5316 0.0000e+00
     -0.489      0.024     8.2823     95.711     36.433  34.639382    -0.1664      7.628   187.6029 1.0734e+02    -0.2413     -0.480     -0.697    22.5318 0.0000e+00
     -0.482      0.029     8.2811     95.699     36.320  34.533367    -0.1810      7.634   187.7022 1.0734e+02    -0.2446     -0.471     -0.683    22.5320 0.0000e+00
     -0.474      0.034     8.2807     95.698     36.253  34.470136    -0.1784      7.632   190.4588 1.0726e+02    -0.2190     -0.467     -0.677    22.5322 0.0000e+00
     -0.464      0.036     8.2822     95.720     36.226  34.446530    -0.1621      7.624   193.9164 1.0751e+02    -0.2062     -0.456     -0.661    22.5323 0.0000e+00
     -0.452      0.036     8.2821     95.725     36.215  34.438508    -0.1591      7.612   197.1569 1.0770e+02    -0.1813     -0.443     -0.641    22.5331 0.0000e+00
     -0.441      0.033     8.2790     95.697     36.210  34.436664    -0.1696      7.600   199.6120 1.0776e+02    -0.1923     -0.432     -0.626    22.5343 0.0000e+00
     -0.431      0.028     8.2770     95.680     36.194  34.424238    -0.1695      7.590   201.2313 1.0788e+02    -0.2181     -0.422     -0.612    22.5354 0.0000e+00
     -0.424      0.024     8.2766     95.680     36.183  34.415306    -0.1668      7.582   202.4524 1.0833e+02    -0.2177     -0.416     -0.602    22.5379 0.0000e+00
     -0.421      0.021     8.2761     95.678     36.157  34.392194    -0.1742      7.573   205.2569 1.0858e+02    -0.2182     -0.412     -0.598    22.5417 0.0000e+00
     -0.421      0.021     8.2754     95.673     36.096  34.335344    -0.1758      7.554   210.0155 1.0851e+02    -0.1935     -0.413     -0.600    22.5462 0.0000e+00
     -0.418      0.020     8.2751     95.671     36.058  34.299605    -0.1777      7.526   213.7002 1.0878e+02    -0.1327     -0.411     -0.597    22.5498 0.0000e+00
     -0.409      0.019     8.2753     95.673     36.035  34.277664    -0.1786      7.502   214.6178 1.0940e+02    -0.0636     -0.402     -0.584    22.5522 0.0000e+00
     -0.399      0.017     8.2758     95.681     36.016  34.260617    -0.1674      7.487   214.4858 1.1032e+02    -0.0283     -0.390     -0.566    22.5542 0.0000e+00
     -0.392      0.016     8.2776     95.705     36.039  34.284041    -0.1620      7.476   211.3295 1.1049e+02    -0.0112     -0.382     -0.553    22.5557 0.0000e+00
     -0.391      0.014     8.2783     95.716     36.062  34.306809    -0.1682      7.460   203.6432 1.0923e+02    -0.0097     -0.382     -0.555    22.5562 0.0000e+00
     -0.393      0.014     8.2778     95.713     36.035  34.281841    -0.1780      7.445   202.5144 1.0751e+02    -0.0412     -0.387     -0.560    22.5567 0.0000e+00
     -0.393      0.018     8.2792     95.730     35.987  34.236227    -0.1800      7.437   205.1673 1.0602e+02    -0.0261     -0.386     -0.561    22.5577 0.0000e+00
     -0.388      0.028     8.2807     95.749     35.948  34.199919    -0.1646      7.436   204.1420 1.0507e+02     0.0201     -0.381     -0.554    22.5592 0.0000e+00
     -0.380      0.047     8.2808     95.750     35.906  34.160432    -0.0930      7.433   205.9495 1.0495e+02     0.2131     -0.374     -0.542    22.5610 0.0000e+00
     -0.370      0.071     8.2801     95.742     35.885  34.139888     0.6225      7.421   199.2315 1.0616e+02     2.6131     -0.365     -0.529    22.5624 0.0000e+00
     -0.354      0.098     8.2817     95.760     35.888  34.142077     1.9325      7.403   183.4002 1.0830e+02     7.0344     -0.352     -0.511    22.5634 0.0000e+00
     -0.326      0.124     8.2893     95.847     35.868  34.123379     2.6502      7.394   175.7722 1.0958e+02     9.4198     -0.324     -0.469    22.5638 0.0000e+00
     -0.286      0.143     8.3051     96.030     35.848  34.104363     2.7572      7.390   175.8333 1.0945e+02     9.4818     -0.282     -0.409    22.5640 0.0000e+00
     -0.239      0.152     8.3283     96.299     35.845  34.102707     3.1802      7.386   177.1698 1.0889e+02     7.6305     -0.236     -0.343    22.5638 0.0000e+00
     -0.187      0.151     8.3479     96.529     35.845  34.103363     3.9413      7.383   178.5951 1.0777e+02     4.1872     -0.183     -0.265    22.5630 0.0000e+00
     -0.141      0.142     8.3302     96.325     35.854  34.112293     4.3597      7.383   179.9888 1.0603e+02     2.3342     -0.132     -0.190    22.5626 0.0000e+00
     -0.109      0.128     8.2333     95.206     35.890  34.147159     4.3982      7.385   181.4602 1.0434e+02     2.1942     -0.101     -0.147    22.5632 0.0000e+00
     -0.089      0.112     8.0456     93.036     35.953  34.207331     4.4433      7.384   183.2210 1.0177e+02     2.1887     -0.088     -0.128    22.5644 0.0000e+00
     -0.068      0.093     7.7868     90.043     35.951  34.204654     4.5279      7.381   184.6724 9.3688e+01     2.1769     -0.071     -0.103    22.5655 0.0000e+00
     -0.042      0.075     7.4883     86.591     35.856  34.114795     4.5759      7.380   185.7592 7.9182e+01     2.1443     -0.041     -0.060    22.5664 0.0000e+00
     -0.016      0.060     7.1748     82.966     35.812  34.073617     4.5737      7.379   187.1557 6.7403e+01     2.0993     -0.011     -0.017    22.5669 0.0000e+00
     -0.001      0.047     6.8695     79.435     35.827  34.087874     4.4637      7.376   188.9100 6.4008e+01     2.0290      0.005      0.007    22.5671 0.0000e+00
      0.003      0.036     6.6040     76.366     35.837  34.096624     4.2667      7.371   190.4495 6.4737e+01     1.9349      0.005      0.008    22.5667 0.0000e+00
      0.002      0.025     6.3980     73.984     35.857  34.115901     4.1581      7.365   191.6597 6.5375e+01     1.9072      0.001      0.001    22.5667 0.0000e+00
      0.004      0.016     6.2522     72.298     35.871  34.130399     4.1436      7.359   192.9602 6.6705e+01     1.9691      0.002      0.003    22.5670 0.0000e+00
      0.011      0.011     6.1574     71.203     35.886  34.144883     4.1467      7.353   194.3862 6.9123e+01     2.0735      0.010      0.015    22.5667 0.0000e+00
      0.018      0.010     6.0954     70.488     35.906  34.163995     4.1493      7.349   195.6513 7.0644e+01     2.1613      0.019      0.028    22.5663 0.0000e+00
      0.021      0.009     6.0528     69.995     35.913  34.170926     4.1466      7.349   196.7266 7.1102e+01     2.2074      0.022      0.032    22.5666 0.0000e+00
      0.020      0.007     6.0312     69.745     35.907  34.165165     4.1513      7.350   197.9235 7.2222e+01     2.2041      0.020      0.029    22.5674 0.0000e+00
      0.019      0.004     6.0307     69.739     35.899  34.157859     4.1608      7.350   199.3677 7.4111e+01     2.1513      0.018      0.027    22.5684 0.0000e+00
      0.019      0.002     6.0452     69.908     35.887  34.146105     4.1873      7.347   200.7662 7.5633e+01     2.0879      0.018      0.027    22.5687 0.0000e+00
      0.020      0.000     6.0687     70.179     35.891  34.150081     4.2330      7.340   201.8411 7.6650e+01     1.9864      0.019      0.028    22.5689 0.0000e+00
