* Sea-Bird SBE19plus  Data File:
* FileName = C:\DATA\20180917_fcr_0003.hex
* Software version 2.6.3.104 SB_Terminal.dll
* Temperature SN = 7809
* Conductivity SN = 7809
* System UpLoad Time = Sep 17 2018 17:51:49
* <ApplicationData>
* <Seaterm232>
* <SoftwareVersion>2.6.3.104</SoftwareVersion>
* <BuildDate>30-Jun-2017</BuildDate>
* </Seaterm232>
* </ApplicationData>
* cast   3 17 Sep 2018 15:46:00 samples 1062 to 1687, avg = 1, stop = mag switch
# nquan = 15
# nvalues = 521                         
# units = specified
# name 0 = depFM: Depth [fresh water, m]
# name 1 = dz/dtM: Descent Rate [m/s]
# name 2 = sbeox0Mg/L: Oxygen, SBE 43 [mg/l]
# name 3 = sbeox0PS: Oxygen, SBE 43 [% saturation]
# name 4 = specc: Specific Conductance [uS/cm]
# name 5 = c0uS/cm: Conductivity [uS/cm]
# name 6 = flECO-AFL: Fluorescence, WET Labs ECO-AFL/FL [mg/m^3]
# name 7 = ph: pH
# name 8 = orp: Oxidation Reduction Potential [mV]
# name 9 = par/sat/log: PAR/Logarithmic, Satlantic
# name 10 = turbWETntu0: Turbidity, WET Labs ECO [NTU]
# name 11 = prdM: Pressure, Strain Gauge [db]
# name 12 = prdE: Pressure, Strain Gauge [psi]
# name 13 = tv290C: Temperature [ITS-90, deg C]
# name 14 = flag:  0.000e+00
# span 0 =     -0.602,      5.245       
# span 1 =     -0.157,      0.180       
# span 2 =     0.1261,     8.3870       
# span 3 =      1.303,     97.294       
# span 4 =      4.566,     86.908       
# span 5 =   4.341876,  72.616548       
# span 6 =    -0.1943,    11.7072       
# span 7 =      6.316,      7.986       
# span 8 =   110.8913,   313.8555       
# span 9 = 3.0845e-01, 6.2223e+02       
# span 10 =    -0.7026,    31.9694      
# span 11 =     -0.591,      5.144      
# span 12 =     -0.857,      7.461      
# span 13 =    16.6795,    22.7996      
# span 14 = 0.0000e+00, 0.0000e+00      
# interval = seconds: 0.25
# start_time = Sep 17 2018 15:46:00 [Instrument's time stamp, header]
# bad_flag = -9.990e-29
# <Sensors count="9" >
#   <sensor Channel="1" >
#     <!-- Count, Temperature -->
#     <TemperatureSensor SensorID="58" >
#       <SerialNumber>7809</SerialNumber>
#       <CalibrationDate>09-Mar-18</CalibrationDate>
#       <A0>1.21093245e-003</A0>
#       <A1>2.84356597e-004</A1>
#       <A2>-1.94507398e-006</A2>
#       <A3>2.12806664e-007</A3>
#       <Slope>1.00000000</Slope>
#       <Offset>0.0000</Offset>
#     </TemperatureSensor>
#   </sensor>
#   <sensor Channel="2" >
#     <!-- Frequency 0, Conductivity -->
#     <ConductivitySensor SensorID="3" >
#       <SerialNumber>7809</SerialNumber>
#       <CalibrationDate>09-Mar-18</CalibrationDate>
#       <UseG_J>1</UseG_J>
#       <!-- Cell const and series R are applicable only for wide range sensors. -->
#       <SeriesR>0.0000</SeriesR>
#       <CellConst>2000.0000</CellConst>
#       <ConductivityType>0</ConductivityType>
#       <Coefficients equation="0" >
#         <A>0.00000000e+000</A>
#         <B>0.00000000e+000</B>
#         <C>0.00000000e+000</C>
#         <D>0.00000000e+000</D>
#         <M>0.0</M>
#         <CPcor>-9.57000000e-008</CPcor>
#       </Coefficients>
#       <Coefficients equation="1" >
#         <G>-1.00672082e+000</G>
#         <H>1.26906489e-001</H>
#         <I>-1.40584351e-004</I>
#         <J>2.47837121e-005</J>
#         <CPcor>-9.57000000e-008</CPcor>
#         <CTcor>3.2500e-006</CTcor>
#         <!-- WBOTC not applicable unless ConductivityType = 1. -->
#         <WBOTC>0.00000000e+000</WBOTC>
#       </Coefficients>
#       <Slope>1.00000000</Slope>
#       <Offset>0.00000</Offset>
#     </ConductivitySensor>
#   </sensor>
#   <sensor Channel="3" >
#     <!-- Count, Pressure, Strain Gauge -->
#     <PressureSensor SensorID="46" >
#       <SerialNumber>7809</SerialNumber>
#       <CalibrationDate>07-Mar-18</CalibrationDate>
#       <PA0>-4.08176359e-002</PA0>
#       <PA1>4.85188419e-004</PA1>
#       <PA2>-3.51168169e-012</PA2>
#       <PTEMPA0>-5.37806900e+001</PTEMPA0>
#       <PTEMPA1>5.36620721e+001</PTEMPA1>
#       <PTEMPA2>4.87214332e-002</PTEMPA2>
#       <PTCA0>5.25213435e+005</PTCA0>
#       <PTCA1>1.79532409e+000</PTCA1>
#       <PTCA2>-2.84353509e-001</PTCA2>
#       <PTCB0>2.51668750e+001</PTCB0>
#       <PTCB1>3.75000000e-004</PTCB1>
#       <PTCB2>0.00000000e+000</PTCB2>
#       <Offset>0.000000</Offset>
#     </PressureSensor>
#   </sensor>
#   <sensor Channel="4" >
#     <!-- A/D voltage 0, pH -->
#     <pH_Sensor SensorID="43" >
#       <SerialNumber>0363</SerialNumber>
#       <CalibrationDate>16-Mar-18</CalibrationDate>
#       <Slope>4.6194</Slope>
#       <Offset>2.5947</Offset>
#     </pH_Sensor>
#   </sensor>
#   <sensor Channel="5" >
#     <!-- A/D voltage 1, Oxidation Reduction Potential -->
#     <OxidationReductionPotentialSensor SensorID="41" >
#       <SerialNumber>0363</SerialNumber>
#       <CalibrationDate>16-Mar-18</CalibrationDate>
#       <B>2.499480</B>
#       <M>-0.496195</M>
#       <Offset>0.0</Offset>
#     </OxidationReductionPotentialSensor>
#   </sensor>
#   <sensor Channel="6" >
#     <!-- A/D voltage 2, Oxygen, SBE 43 -->
#     <OxygenSensor SensorID="38" >
#       <SerialNumber>0434</SerialNumber>
#       <CalibrationDate>13-Mar-18</CalibrationDate>
#       <Use2007Equation>1</Use2007Equation>
#       <CalibrationCoefficients equation="0" >
#         <!-- Coefficients for Owens-Millard equation. -->
#         <Boc>0.0000</Boc>
#         <Soc>0.0000e+000</Soc>
#         <offset>0.0000</offset>
#         <Pcor>0.00e+000</Pcor>
#         <Tcor>0.0000</Tcor>
#         <Tau>0.0</Tau>
#       </CalibrationCoefficients>
#       <CalibrationCoefficients equation="1" >
#         <!-- Coefficients for Sea-Bird equation - SBE calibration in 2007 and later. -->
#         <Soc>4.5718e-001</Soc>
#         <offset>-0.6113</offset>
#         <A>-4.0649e-003</A>
#         <B> 2.0945e-004</B>
#         <C>-3.3182e-006</C>
#         <D0> 2.5826e+000</D0>
#         <D1> 1.92634e-004</D1>
#         <D2>-4.64803e-002</D2>
#         <E> 3.6000e-002</E>
#         <Tau20> 1.2200</Tau20>
#         <H1>-3.3000e-002</H1>
#         <H2> 5.0000e+003</H2>
#         <H3> 1.4500e+003</H3>
#       </CalibrationCoefficients>
#     </OxygenSensor>
#   </sensor>
#   <sensor Channel="7" >
#     <!-- A/D voltage 3, PAR/Logarithmic, Satlantic -->
#     <PARLog_SatlanticSensor SensorID="76" >
#       <SerialNumber>1122</SerialNumber>
#       <CalibrationDate>22-Jun-2017</CalibrationDate>
#       <a0>9.6090e-001</a0>
#       <a1>8.0780e-001</a1>
#       <Im>1.3589e+000</Im>
#       <Multiplier>1.0000e+000</Multiplier>
#     </PARLog_SatlanticSensor>
#   </sensor>
#   <sensor Channel="8" >
#     <!-- A/D voltage 4, Fluorometer, WET Labs ECO-AFL/FL -->
#     <FluoroWetlabECO_AFL_FL_Sensor SensorID="20" >
#       <SerialNumber>FLNTURT-2496</SerialNumber>
#       <CalibrationDate>25-Jan-2017</CalibrationDate>
#       <ScaleFactor>5.30000000e+001</ScaleFactor>
#       <!-- Dark output -->
#       <Vblank>0.0560</Vblank>
#     </FluoroWetlabECO_AFL_FL_Sensor>
#   </sensor>
#   <sensor Channel="9" >
#     <!-- A/D voltage 5, Turbidity Meter, WET Labs, ECO-NTU -->
#     <TurbidityMeter SensorID="67" >
#       <SerialNumber>FLNTURT-2496</SerialNumber>
#       <CalibrationDate>25-Jan-2017</CalibrationDate>
#       <ScaleFactor>176.000000</ScaleFactor>
#       <!-- Dark output -->
#       <DarkVoltage>0.072000</DarkVoltage>
#     </TurbidityMeter>
#   </sensor>
# </Sensors>
# datcnv_date = Sep 17 2018 17:58:17, 7.26.7.114 [datcnv_vars = 14]
# datcnv_in = C:\DATA\20180917_fcr30.hex C:\DATA\SBE19plusV2_7809.xmlcon
# datcnv_skipover = 0
# datcnv_ox_hysteresis_correction = yes
# datcnv_ox_tau_correction = yes
# filter_date = Sep 17 2018 17:59:15, 7.26.7.114
# filter_in = C:\DATA\20180917_fcr30.cnv
# filter_low_pass_tc_A = 0.030
# filter_low_pass_tc_B = 0.150
# filter_low_pass_A_vars = prdM prdE tv290C
# filter_low_pass_B_vars = depFM dz/dtM sbeox0Mg/L sbeox0PS specc c0uS/cm flECO-AFL ph orp par/sat/log turbWETntu0
# alignctd_date = Sep 17 2018 17:59:41, 7.26.7.114
# alignctd_in = C:\DATA\20180917_fcr30.cnv
# alignctd_adv = dz/dtM 1.000, sbeox0Mg/L 1.000, sbeox0PS 1.000, specc 1.000, c0uS/cm 1.000, flECO-AFL 1.000, ph 1.000, orp 1.000, turbWETntu0 1.000                                                                                 
# file_type = ascii
*END*
     -0.600 -4.064e-07     8.0721     93.299      4.821   4.584985    -0.1594      6.588   310.3526 2.6868e+02    -0.6617     -0.589     -0.854    22.5387 0.0000e+00
     -0.600      0.000     8.0718     93.296      4.911   4.670282    -0.1584      6.596   313.8555 2.7878e+02    -0.6685     -0.589     -0.854    22.5416 0.0000e+00
     -0.601     -0.000     8.0732     93.313      4.963   4.720273    -0.1733      6.601   310.3256 2.8816e+02    -0.6542     -0.589     -0.855    22.5445 0.0000e+00
     -0.601     -0.001     8.0758     93.344      4.857   4.618594    -0.1831      6.602   304.7560 2.9166e+02    -0.6721     -0.589     -0.854    22.5457 0.0000e+00
     -0.601     -0.001     8.0763     93.349      4.752   4.519104    -0.1757      6.603   303.2998 2.9989e+02    -0.7026     -0.589     -0.855    22.5462 0.0000e+00
     -0.601     -0.000     8.0751     93.334      4.566   4.341876    -0.1753      6.607   303.9895 3.0962e+02    -0.6869     -0.589     -0.854    22.5465 0.0000e+00
     -0.601 -1.847e-08     8.0739     93.323      4.870   4.632121    -0.1874      6.612   301.6515 3.0869e+02    -0.6348     -0.590     -0.855    22.5467 0.0000e+00
     -0.601 -2.032e-07     8.0722     93.311      6.640   6.315756    -0.1943      6.617   297.7465 2.8739e+02    -0.6214     -0.590     -0.855    22.5468 0.0000e+00
     -0.601 -2.032e-07     8.0698     93.303      8.493   8.080104    -0.1843      6.621   294.8895 2.5567e+02    -0.6476     -0.590     -0.855    22.5464 0.0000e+00
     -0.601 -1.796e-08     8.0659     93.311      9.217   8.775000    -0.1682      6.624   292.4025 2.4360e+02    -0.6464     -0.590     -0.855    22.5467 0.0000e+00
     -0.601 3.9302e-09     8.0609     93.341      9.786   9.325828    -0.1644      6.622   290.5638 2.5294e+02    -0.6070     -0.589     -0.855    22.5462 0.0000e+00
     -0.602 6.1554e-08     8.0585     93.402      9.335   8.903732    -0.1665      6.615   288.8337 2.7006e+02    -0.4456     -0.590     -0.856    22.5509 0.0000e+00
     -0.602 6.7876e-07     8.0573     93.467      8.296   7.921152    -0.1657      6.607   286.5398 2.9318e+02    -0.1596     -0.590     -0.856    22.5558 0.0000e+00
     -0.602      0.000     8.0553     93.507      8.745   8.356356    -0.1637      6.602   283.9952 3.2337e+02     0.0134     -0.590     -0.856    22.5822 0.0000e+00
     -0.602      0.000     8.0548     93.536      8.781   8.393630    -0.1615      6.602   280.3509 3.6260e+02     0.0275     -0.591     -0.857    22.6450 0.0000e+00
     -0.602      0.001     8.0558     93.557      7.298   6.976605    -0.1660      6.607   278.5268 4.0127e+02    -0.0498     -0.590     -0.856    22.6941 0.0000e+00
     -0.602      0.005     8.0555     93.556      5.550   5.305531    -0.1723      6.609   279.2346 4.1752e+02    -0.1582     -0.590     -0.856    22.7373 0.0000e+00
     -0.602      0.014     8.0536     93.534      6.289   6.012084    -0.1731      6.612   270.2378 4.3267e+02    -0.1838     -0.590     -0.855    22.7807 0.0000e+00
     -0.602      0.027     8.0516     93.503     10.393   9.934915    -0.1669      6.663   252.3454 4.8047e+02    -0.1772     -0.591     -0.856    22.7946 0.0000e+00
     -0.598      0.042     8.0515     93.487     16.417  15.690280    -0.1621      6.841   244.8714 5.3396e+02    -0.2002     -0.591     -0.857    22.7971 0.0000e+00
     -0.585      0.062     8.0549     93.512     25.128  24.011711    -0.1697      7.164   230.2035 5.6717e+02    -0.2173     -0.578     -0.839    22.7996 0.0000e+00
     -0.563      0.087     8.0606     93.567     32.657  31.202366    -0.1681      7.538   195.1082 5.8564e+02    -0.2008     -0.551     -0.799    22.7996 0.0000e+00
     -0.538      0.116     8.0663     93.624     35.325  33.747455    -0.1510      7.814   174.9328 5.9287e+02    -0.1232     -0.526     -0.762    22.7950 0.0000e+00
     -0.512      0.139     8.0733     93.696     35.745  34.145282    -0.0727      7.945   175.2924 5.8648e+02     0.5983     -0.508     -0.737    22.7845 0.0000e+00
     -0.473      0.152     8.0823     93.792     35.908  34.297491     0.7971      7.986   178.2045 5.7406e+02     8.7676     -0.472     -0.684    22.7743 0.0000e+00
     -0.418      0.154     8.0921     93.898     35.998  34.380957     2.3971      7.981   187.1708 5.6800e+02    23.7896     -0.408     -0.592    22.7674 0.0000e+00
     -0.363      0.146     8.1028     94.016     36.012  34.392242     3.2734      7.953   200.6753 5.6654e+02    31.9279     -0.349     -0.507    22.7624 0.0000e+00
     -0.322      0.130     8.1144     94.147     35.992  34.370422     3.3782      7.915   200.8119 5.7065e+02    31.9694     -0.310     -0.450    22.7580 0.0000e+00
     -0.296      0.109     8.1274     94.295     35.994  34.371202     3.6267      7.868   187.9619 5.7995e+02    24.3529     -0.286     -0.415    22.7531 0.0000e+00
     -0.279      0.094     8.1417     94.460     36.026  34.401667     4.0637      7.812   179.1847 5.8693e+02    10.3034     -0.273     -0.396    22.7481 0.0000e+00
     -0.268      0.091     8.1551     94.613     36.047  34.421177     4.2963      7.763   175.7363 5.9116e+02     2.6639     -0.262     -0.381    22.7444 0.0000e+00
     -0.255      0.101     8.1696     94.781     36.042  34.416547     4.3171      7.730   174.3165 5.7694e+02     2.0238     -0.252     -0.366    22.7421 0.0000e+00
     -0.233      0.118     8.1893     95.009     36.035  34.409202     4.3334      7.706   177.0750 5.0196e+02     2.0754     -0.236     -0.342    22.7409 0.0000e+00
     -0.196      0.136     8.2135     95.288     36.022  34.395886     4.3454      7.689   180.4378 3.9242e+02     2.1589     -0.196     -0.285    22.7404 0.0000e+00
     -0.147      0.150     8.2424     95.623     36.008  34.382567     4.3435      7.676   178.9253 3.2761e+02     2.1789     -0.143     -0.206    22.7399 0.0000e+00
     -0.097      0.154     8.2772     96.027     35.999  34.375204     4.3471      7.663   176.5115 3.0238e+02     2.1646     -0.092     -0.134    22.7397 0.0000e+00
     -0.054      0.144     8.3155     96.472     35.994  34.370374     4.4445      7.649   176.3764 2.6364e+02     2.1382     -0.052     -0.076    22.7393 0.0000e+00
     -0.016      0.120     8.3523     96.899     36.013  34.387698     4.6295      7.638   176.6031 2.0711e+02     2.1352     -0.015     -0.022    22.7385 0.0000e+00
      0.016      0.090     8.3793     97.209     36.021  34.394107     4.7270      7.628   176.8440 1.6892e+02     2.1281      0.020      0.029    22.7381 0.0000e+00
      0.037      0.060     8.3870     97.294     36.012  34.384338     4.7236      7.620   177.1371 1.5983e+02     2.1132      0.041      0.060    22.7378 0.0000e+00
      0.043      0.035     8.3630     97.010     36.027  34.396627     4.6990      7.613   177.4797 1.6691e+02     2.0771      0.044      0.064    22.7380 0.0000e+00
      0.040      0.017     8.2779     96.020     36.048  34.415644     4.6675      7.606   177.9757 1.7538e+02     1.9968      0.040      0.057    22.7383 0.0000e+00
      0.035      0.005     8.1091     94.062     36.057  34.423720     4.6559      7.598   178.5734 1.7528e+02     1.9361      0.034      0.048    22.7372 0.0000e+00
      0.033      0.001     7.8704     91.292     36.065  34.430753     4.6593      7.590   179.1143 1.7633e+02     1.8917      0.029      0.042    22.7347 0.0000e+00
      0.034      0.002     7.5906     88.047     36.071  34.437162     4.6624      7.583   179.6980 1.7928e+02     1.8575      0.033      0.047    22.7318 0.0000e+00
      0.037      0.005     7.3011     84.689     36.071  34.437693     4.7026      7.576   180.3823 1.7671e+02     1.9193      0.038      0.055    22.7299 0.0000e+00
      0.040      0.006     7.0312     81.559     36.070  34.437174     4.7783      7.571   181.1074 1.7150e+02     2.0282      0.040      0.058    22.7291 0.0000e+00
      0.041      0.005     6.7922     78.787     36.064  34.430889     4.8237      7.566   181.7539 1.6780e+02     2.0753      0.040      0.058    22.7293 0.0000e+00
      0.044      0.004     6.5894     76.434     36.058  34.425210     4.8286      7.561   182.2625 1.6553e+02     2.0919      0.043      0.063    22.7297 0.0000e+00
      0.045      0.002     6.4334     74.625     36.065  34.432040     4.7831      7.557   182.7824 1.6543e+02     2.1078      0.045      0.065    22.7298 0.0000e+00
      0.044      0.000     6.3255     73.374     36.084  34.449940     4.7051      7.552   183.3939 1.7043e+02     2.1455      0.043      0.062    22.7299 0.0000e+00
      0.042     -0.002     6.2559     72.566     36.085  34.451085     4.6662      7.547   183.9774 1.7874e+02     2.1811      0.042      0.060    22.7299 0.0000e+00
      0.042     -0.004     6.2106     72.041     36.080  34.445887     4.6613      7.541   184.5031 1.8348e+02     2.1720      0.042      0.060    22.7300 0.0000e+00
      0.041     -0.004     6.1769     71.650     36.085  34.450608     4.6553      7.536   185.0172 1.8317e+02     2.1576      0.041      0.060    22.7300 0.0000e+00
      0.040     -0.003     6.1504     71.342     36.079  34.444644     4.6496      7.532   185.4618 1.8193e+02     2.1293      0.039      0.057    22.7300 0.0000e+00
      0.038     -0.003     6.1321     71.130     36.072  34.437290     4.6477      7.527   185.9215 1.8205e+02     2.1039      0.037      0.054    22.7299 0.0000e+00
      0.037     -0.003     6.1219     71.011     36.060  34.425210     4.6506      7.521   186.5311 1.8451e+02     2.1263      0.036      0.052    22.7298 0.0000e+00
      0.038     -0.008     6.1203     70.992     36.060  34.425626     4.6663      7.511   187.1536 1.8792e+02     2.1548      0.037      0.053    22.7295 0.0000e+00
      0.038     -0.016     6.1271     71.070     36.077  34.442324     4.6907      7.501   187.7698 1.8931e+02     2.1747      0.038      0.055    22.7293 0.0000e+00
      0.038     -0.023     6.1409     71.229     36.072  34.436548     4.7148      7.492   188.4754 1.9320e+02     2.2142      0.039      0.058    22.7291 0.0000e+00
      0.032     -0.028     6.1647     71.503     36.055  34.419311     4.7288      7.485   189.1456 2.1546e+02     2.2353      0.037      0.054    22.7292 0.0000e+00
      0.017     -0.029     6.1972     71.878     36.061  34.424469     4.6767      7.479   189.6781 2.5237e+02     2.1548      0.018      0.026    22.7291 0.0000e+00
     -0.001     -0.026     6.2274     72.228     36.073  34.435394     4.5716      7.472   190.0094 2.6282e+02     2.0039     -0.006     -0.009    22.7282 0.0000e+00
     -0.010     -0.020     6.2432     72.411     36.062  34.424366     4.5235      7.467   190.3114 2.4414e+02     1.9064     -0.013     -0.019    22.7276 0.0000e+00
     -0.009     -0.009     6.2396     72.369     36.056  34.418165     4.5269      7.461   190.8354 2.3468e+02     1.8913     -0.008     -0.012    22.7268 0.0000e+00
     -0.006      0.005     6.2197     72.137     36.061  34.423939     4.5303      7.454   191.3545 2.3473e+02     1.9135     -0.005     -0.007    22.7253 0.0000e+00
     -0.003      0.015     6.1881     71.772     36.069  34.430659     4.5736      7.446   191.7700 2.2993e+02     1.9614     -0.004     -0.006    22.7246 0.0000e+00
      0.002      0.017     6.1466     71.290     36.074  34.435904     4.6555      7.440   192.2448 2.1520e+02     2.0419      0.000     -0.001    22.7242 0.0000e+00
