* Sea-Bird SBE19plus  Data File:
* FileName = C:\DATA\20180917_fcr_0002.hex
* Software version 2.6.3.104 SB_Terminal.dll
* Temperature SN = 7809
* Conductivity SN = 7809
* System UpLoad Time = Sep 17 2018 17:51:31
* <ApplicationData>
* <Seaterm232>
* <SoftwareVersion>2.6.3.104</SoftwareVersion>
* <BuildDate>30-Jun-2017</BuildDate>
* </Seaterm232>
* </ApplicationData>
* cast   2 17 Sep 2018 15:06:31 samples 503 to 1061, avg = 1, stop = mag switch
# nquan = 15
# nvalues = 446                         
# units = specified
# name 0 = depFM: Depth [fresh water, m]
# name 1 = dz/dtM: Descent Rate [m/s]
# name 2 = sbeox0Mg/L: Oxygen, SBE 43 [mg/l]
# name 3 = sbeox0PS: Oxygen, SBE 43 [% saturation]
# name 4 = specc: Specific Conductance [uS/cm]
# name 5 = c0uS/cm: Conductivity [uS/cm]
# name 6 = flECO-AFL: Fluorescence, WET Labs ECO-AFL/FL [mg/m^3]
# name 7 = ph: pH
# name 8 = orp: Oxidation Reduction Potential [mV]
# name 9 = par/sat/log: PAR/Logarithmic, Satlantic
# name 10 = turbWETntu0: Turbidity, WET Labs ECO [NTU]
# name 11 = prdM: Pressure, Strain Gauge [db]
# name 12 = prdE: Pressure, Strain Gauge [psi]
# name 13 = tv290C: Temperature [ITS-90, deg C]
# name 14 = flag:  0.000e+00
# span 0 =     -0.601,      2.733       
# span 1 =     -0.185,      0.246       
# span 2 =     4.8842,     8.1505       
# span 3 =     56.394,     94.299       
# span 4 =      2.235,     35.957       
# span 5 =   2.097787,  34.252883       
# span 6 =    -0.1901,     5.6323       
# span 7 =      6.682,      7.968       
# span 8 =   216.6608,   296.0439       
# span 9 = 3.4507e+00, 1.1637e+02       
# span 10 =    -0.2535,    12.9510      
# span 11 =     -0.589,      2.681      
# span 12 =     -0.856,      3.889      
# span 13 =    21.5067,    22.6300      
# span 14 = 0.0000e+00, 0.0000e+00      
# interval = seconds: 0.25
# start_time = Sep 17 2018 15:06:31 [Instrument's time stamp, header]
# bad_flag = -9.990e-29
# <Sensors count="9" >
#   <sensor Channel="1" >
#     <!-- Count, Temperature -->
#     <TemperatureSensor SensorID="58" >
#       <SerialNumber>7809</SerialNumber>
#       <CalibrationDate>09-Mar-18</CalibrationDate>
#       <A0>1.21093245e-003</A0>
#       <A1>2.84356597e-004</A1>
#       <A2>-1.94507398e-006</A2>
#       <A3>2.12806664e-007</A3>
#       <Slope>1.00000000</Slope>
#       <Offset>0.0000</Offset>
#     </TemperatureSensor>
#   </sensor>
#   <sensor Channel="2" >
#     <!-- Frequency 0, Conductivity -->
#     <ConductivitySensor SensorID="3" >
#       <SerialNumber>7809</SerialNumber>
#       <CalibrationDate>09-Mar-18</CalibrationDate>
#       <UseG_J>1</UseG_J>
#       <!-- Cell const and series R are applicable only for wide range sensors. -->
#       <SeriesR>0.0000</SeriesR>
#       <CellConst>2000.0000</CellConst>
#       <ConductivityType>0</ConductivityType>
#       <Coefficients equation="0" >
#         <A>0.00000000e+000</A>
#         <B>0.00000000e+000</B>
#         <C>0.00000000e+000</C>
#         <D>0.00000000e+000</D>
#         <M>0.0</M>
#         <CPcor>-9.57000000e-008</CPcor>
#       </Coefficients>
#       <Coefficients equation="1" >
#         <G>-1.00672082e+000</G>
#         <H>1.26906489e-001</H>
#         <I>-1.40584351e-004</I>
#         <J>2.47837121e-005</J>
#         <CPcor>-9.57000000e-008</CPcor>
#         <CTcor>3.2500e-006</CTcor>
#         <!-- WBOTC not applicable unless ConductivityType = 1. -->
#         <WBOTC>0.00000000e+000</WBOTC>
#       </Coefficients>
#       <Slope>1.00000000</Slope>
#       <Offset>0.00000</Offset>
#     </ConductivitySensor>
#   </sensor>
#   <sensor Channel="3" >
#     <!-- Count, Pressure, Strain Gauge -->
#     <PressureSensor SensorID="46" >
#       <SerialNumber>7809</SerialNumber>
#       <CalibrationDate>07-Mar-18</CalibrationDate>
#       <PA0>-4.08176359e-002</PA0>
#       <PA1>4.85188419e-004</PA1>
#       <PA2>-3.51168169e-012</PA2>
#       <PTEMPA0>-5.37806900e+001</PTEMPA0>
#       <PTEMPA1>5.36620721e+001</PTEMPA1>
#       <PTEMPA2>4.87214332e-002</PTEMPA2>
#       <PTCA0>5.25213435e+005</PTCA0>
#       <PTCA1>1.79532409e+000</PTCA1>
#       <PTCA2>-2.84353509e-001</PTCA2>
#       <PTCB0>2.51668750e+001</PTCB0>
#       <PTCB1>3.75000000e-004</PTCB1>
#       <PTCB2>0.00000000e+000</PTCB2>
#       <Offset>0.000000</Offset>
#     </PressureSensor>
#   </sensor>
#   <sensor Channel="4" >
#     <!-- A/D voltage 0, pH -->
#     <pH_Sensor SensorID="43" >
#       <SerialNumber>0363</SerialNumber>
#       <CalibrationDate>16-Mar-18</CalibrationDate>
#       <Slope>4.6194</Slope>
#       <Offset>2.5947</Offset>
#     </pH_Sensor>
#   </sensor>
#   <sensor Channel="5" >
#     <!-- A/D voltage 1, Oxidation Reduction Potential -->
#     <OxidationReductionPotentialSensor SensorID="41" >
#       <SerialNumber>0363</SerialNumber>
#       <CalibrationDate>16-Mar-18</CalibrationDate>
#       <B>2.499480</B>
#       <M>-0.496195</M>
#       <Offset>0.0</Offset>
#     </OxidationReductionPotentialSensor>
#   </sensor>
#   <sensor Channel="6" >
#     <!-- A/D voltage 2, Oxygen, SBE 43 -->
#     <OxygenSensor SensorID="38" >
#       <SerialNumber>0434</SerialNumber>
#       <CalibrationDate>13-Mar-18</CalibrationDate>
#       <Use2007Equation>1</Use2007Equation>
#       <CalibrationCoefficients equation="0" >
#         <!-- Coefficients for Owens-Millard equation. -->
#         <Boc>0.0000</Boc>
#         <Soc>0.0000e+000</Soc>
#         <offset>0.0000</offset>
#         <Pcor>0.00e+000</Pcor>
#         <Tcor>0.0000</Tcor>
#         <Tau>0.0</Tau>
#       </CalibrationCoefficients>
#       <CalibrationCoefficients equation="1" >
#         <!-- Coefficients for Sea-Bird equation - SBE calibration in 2007 and later. -->
#         <Soc>4.5718e-001</Soc>
#         <offset>-0.6113</offset>
#         <A>-4.0649e-003</A>
#         <B> 2.0945e-004</B>
#         <C>-3.3182e-006</C>
#         <D0> 2.5826e+000</D0>
#         <D1> 1.92634e-004</D1>
#         <D2>-4.64803e-002</D2>
#         <E> 3.6000e-002</E>
#         <Tau20> 1.2200</Tau20>
#         <H1>-3.3000e-002</H1>
#         <H2> 5.0000e+003</H2>
#         <H3> 1.4500e+003</H3>
#       </CalibrationCoefficients>
#     </OxygenSensor>
#   </sensor>
#   <sensor Channel="7" >
#     <!-- A/D voltage 3, PAR/Logarithmic, Satlantic -->
#     <PARLog_SatlanticSensor SensorID="76" >
#       <SerialNumber>1122</SerialNumber>
#       <CalibrationDate>22-Jun-2017</CalibrationDate>
#       <a0>9.6090e-001</a0>
#       <a1>8.0780e-001</a1>
#       <Im>1.3589e+000</Im>
#       <Multiplier>1.0000e+000</Multiplier>
#     </PARLog_SatlanticSensor>
#   </sensor>
#   <sensor Channel="8" >
#     <!-- A/D voltage 4, Fluorometer, WET Labs ECO-AFL/FL -->
#     <FluoroWetlabECO_AFL_FL_Sensor SensorID="20" >
#       <SerialNumber>FLNTURT-2496</SerialNumber>
#       <CalibrationDate>25-Jan-2017</CalibrationDate>
#       <ScaleFactor>5.30000000e+001</ScaleFactor>
#       <!-- Dark output -->
#       <Vblank>0.0560</Vblank>
#     </FluoroWetlabECO_AFL_FL_Sensor>
#   </sensor>
#   <sensor Channel="9" >
#     <!-- A/D voltage 5, Turbidity Meter, WET Labs, ECO-NTU -->
#     <TurbidityMeter SensorID="67" >
#       <SerialNumber>FLNTURT-2496</SerialNumber>
#       <CalibrationDate>25-Jan-2017</CalibrationDate>
#       <ScaleFactor>176.000000</ScaleFactor>
#       <!-- Dark output -->
#       <DarkVoltage>0.072000</DarkVoltage>
#     </TurbidityMeter>
#   </sensor>
# </Sensors>
# datcnv_date = Sep 17 2018 17:58:16, 7.26.7.114 [datcnv_vars = 14]
# datcnv_in = C:\DATA\20180917_fcr20.hex C:\DATA\SBE19plusV2_7809.xmlcon
# datcnv_skipover = 0
# datcnv_ox_hysteresis_correction = yes
# datcnv_ox_tau_correction = yes
# filter_date = Sep 17 2018 17:59:15, 7.26.7.114
# filter_in = C:\DATA\20180917_fcr20.cnv
# filter_low_pass_tc_A = 0.030
# filter_low_pass_tc_B = 0.150
# filter_low_pass_A_vars = prdM prdE tv290C
# filter_low_pass_B_vars = depFM dz/dtM sbeox0Mg/L sbeox0PS specc c0uS/cm flECO-AFL ph orp par/sat/log turbWETntu0
# alignctd_date = Sep 17 2018 17:59:41, 7.26.7.114
# alignctd_in = C:\DATA\20180917_fcr20.cnv
# alignctd_adv = dz/dtM 1.000, sbeox0Mg/L 1.000, sbeox0PS 1.000, specc 1.000, c0uS/cm 1.000, flECO-AFL 1.000, ph 1.000, orp 1.000, turbWETntu0 1.000                                                                                 
# file_type = ascii
*END*
     -0.600 -3.694e-08     8.0263     91.654      2.235   2.097787    -0.1851      6.682   290.1507 3.0460e+01     0.0047     -0.588     -0.853    21.9165 0.0000e+00
     -0.600 -4.064e-07     8.0283     91.678      3.465   3.251180    -0.1901      6.698   294.0244 3.0296e+01    -0.0293     -0.588     -0.853    21.9166 0.0000e+00
     -0.600      0.000     8.0292     91.688      4.560   4.279245    -0.1869      6.721   295.9962 2.9959e+01    -0.0305     -0.588     -0.853    21.9165 0.0000e+00
     -0.600     -0.000     8.0289     91.685      4.465   4.190460    -0.1825      6.733   293.9449 2.9987e+01    -0.0403     -0.588     -0.853    21.9163 0.0000e+00
     -0.600     -0.001     8.0288     91.684      3.740   3.509633    -0.1747      6.730   291.1626 3.1998e+01    -0.0562     -0.589     -0.854    21.9163 0.0000e+00
     -0.600     -0.001     8.0288     91.684      3.155   2.960467    -0.1653      6.722   290.9207 3.8076e+01    -0.0390     -0.588     -0.853    21.9164 0.0000e+00
     -0.600     -0.000     8.0285     91.680      2.796   2.624174    -0.1705      6.716   291.7083 4.8858e+01    -0.0459     -0.589     -0.854    21.9163 0.0000e+00
     -0.601      0.000     8.0282     91.677      2.583   2.424234    -0.1820      6.715   294.0605 6.1759e+01    -0.0792     -0.589     -0.854    21.9165 0.0000e+00
     -0.601      0.001     8.0272     91.671      2.470   2.318714    -0.1850      6.718   296.0439 7.1472e+01    -0.1062     -0.589     -0.855    21.9163 0.0000e+00
     -0.601      0.006     8.0235     91.669      3.189   2.997190    -0.1798      6.728   295.2119 7.5972e+01    -0.1278     -0.589     -0.854    21.9164 0.0000e+00
     -0.601      0.020     8.0121     91.675      8.384   7.900550    -0.1733      6.797   294.8414 7.8429e+01    -0.1880     -0.589     -0.854    21.9160 0.0000e+00
     -0.601      0.044     7.9945     91.691     20.027  18.908880    -0.1713      7.027   280.8962 8.2724e+01    -0.2535     -0.589     -0.855    21.9164 0.0000e+00
     -0.596      0.075     7.9780     91.708     31.047  29.358847    -0.1741      7.395   251.5297 8.9595e+01    -0.2494     -0.589     -0.856    21.9158 0.0000e+00
     -0.578      0.112     7.9644     91.705     35.252  33.385243    -0.1607      7.722   237.1262 9.5208e+01    -0.1993     -0.576     -0.834    21.9180 0.0000e+00
     -0.541      0.152     7.9525     91.690     35.720  33.876631    -0.0645      7.905   235.1161 9.8320e+01     0.1088     -0.536     -0.777    21.9957 0.0000e+00
     -0.491      0.190     7.9438     91.696     35.836  34.029898     0.8606      7.968   226.4512 1.0208e+02     3.4453     -0.485     -0.702    22.1493 0.0000e+00
     -0.432      0.221     7.9412     91.748     35.869  34.095136     2.5511      7.965   217.1943 1.0709e+02     9.5627     -0.426     -0.617    22.2705 0.0000e+00
     -0.368      0.241     7.9480     91.880     35.845  34.093820     3.4750      7.929   216.7159 1.1171e+02    12.8856     -0.362     -0.525    22.3484 0.0000e+00
     -0.300      0.246     7.9650     92.109     35.814  34.077525     3.5846      7.879   223.0751 1.1489e+02    12.9510     -0.293     -0.425    22.4164 0.0000e+00
     -0.231      0.235     7.9910     92.429     35.818  34.088693     3.8585      7.834   224.9076 1.1473e+02    10.2620     -0.226     -0.328    22.4787 0.0000e+00
     -0.163      0.208     8.0244     92.826     35.827  34.101823     4.3415      7.797   219.8584 1.1076e+02     5.2746     -0.159     -0.232    22.5279 0.0000e+00
     -0.102      0.170     8.0622     93.271     35.832  34.109253     4.6006      7.767   216.6608 1.0565e+02     2.5461     -0.093     -0.135    22.5564 0.0000e+00
     -0.060      0.127     8.1059     93.780     35.836  34.115017     4.6205      7.744   216.8758 9.5360e+01     2.2971     -0.050     -0.073    22.5721 0.0000e+00
     -0.040      0.086     8.1460     94.247     35.828  34.107994     4.6366      7.726   217.4674 8.3414e+01     2.2952     -0.033     -0.049    22.5813 0.0000e+00
     -0.036      0.052     8.1505     94.299     35.806  34.087853     4.6669      7.711   217.9634 8.2203e+01     2.2784     -0.033     -0.048    22.5876 0.0000e+00
     -0.039      0.028     8.0876     93.574     35.779  34.062041     4.6924      7.699   218.3983 8.5917e+01     2.2159     -0.039     -0.057    22.5915 0.0000e+00
     -0.039      0.016     7.9463     91.941     35.765  34.049973     4.7069      7.690   218.9406 8.8547e+01     2.1805     -0.041     -0.059    22.5938 0.0000e+00
     -0.034      0.012     7.7312     89.454     35.784  34.068980     4.7129      7.683   219.5300 8.6466e+01     2.1565     -0.034     -0.049    22.5946 0.0000e+00
     -0.026      0.012     7.4638     86.361     35.818  34.101306     4.7099      7.675   220.1036 7.6468e+01     2.1395     -0.025     -0.036    22.5947 0.0000e+00
     -0.021      0.012     7.1784     83.058     35.841  34.123238     4.7069      7.668   220.7136 6.9845e+01     2.1272     -0.019     -0.028    22.5960 0.0000e+00
     -0.019      0.011     6.9044     79.887     35.862  34.143609     4.7144      7.661   221.3135 6.8816e+01     2.1295     -0.018     -0.026    22.5975 0.0000e+00
     -0.019      0.008     6.6659     77.127     35.877  34.157051     4.7359      7.653   221.8497 6.7852e+01     2.1675     -0.019     -0.027    22.5981 0.0000e+00
     -0.019      0.005     6.4824     75.003     35.879  34.158728     4.8293      7.645   222.4643 6.7570e+01     2.1596     -0.019     -0.028    22.5987 0.0000e+00
     -0.017      0.004     6.3590     73.574     35.885  34.163888     4.9883      7.637   223.0659 6.8287e+01     2.1253     -0.016     -0.025    22.5985 0.0000e+00
     -0.015      0.005     6.2876     72.747     35.878  34.155920     5.0776      7.630   223.5309 6.9605e+01     2.1194     -0.014     -0.020    22.5980 0.0000e+00
     -0.015      0.005     6.2536     72.351     35.847  34.125896     5.0716      7.624   224.0427 7.1626e+01     2.1185     -0.015     -0.021    22.5974 0.0000e+00
     -0.014      0.005     6.2384     72.174     35.840  34.118466     4.9903      7.619   224.6083 7.2765e+01     2.1448     -0.014     -0.020    22.5970 0.0000e+00
     -0.012      0.004     6.2257     72.027     35.851  34.129599     4.8578      7.614   225.1210 7.0864e+01     2.1927     -0.011     -0.016    22.5969 0.0000e+00
     -0.011      0.002     6.2073     71.815     35.855  34.133469     4.7835      7.609   225.5962 6.7642e+01     2.2092     -0.010     -0.014    22.5953 0.0000e+00
     -0.010      0.000     6.1801     71.500     35.889  34.165264     4.7720      7.604   226.0523 6.5906e+01     2.1931     -0.011     -0.015    22.5933 0.0000e+00
     -0.010     -0.001     6.1430     71.071     35.922  34.196434     4.7379      7.598   226.4201 6.5501e+01     2.1809     -0.009     -0.013    22.5926 0.0000e+00
     -0.011      0.000     6.0988     70.560     35.918  34.192763     4.6829      7.591   226.6871 6.6544e+01     2.1838     -0.010     -0.014    22.5926 0.0000e+00
     -0.014      0.002     6.0536     70.039     35.908  34.184388     4.6590      7.584   226.9574 6.8677e+01     2.1669     -0.015     -0.021    22.5929 0.0000e+00
     -0.016      0.007     6.0130     69.569     35.881  34.158688     4.6599      7.575   227.2789 6.9675e+01     2.0988     -0.017     -0.025    22.5933 0.0000e+00
     -0.013      0.011     5.9813     69.201     35.858  34.136102     4.6574      7.563   227.6490 6.8956e+01     2.0616     -0.014     -0.021    22.5934 0.0000e+00
     -0.008      0.013     5.9624     68.979     35.890  34.165379     4.6650      7.550   227.9045 6.6918e+01     2.0836     -0.008     -0.012    22.5937 0.0000e+00
      0.000      0.013     5.9579     68.927     35.922  34.195082     4.6974      7.539   228.1314 6.5078e+01     2.0899      0.000      0.001    22.5942 0.0000e+00
      0.008      0.016     5.9665     69.027     35.904  34.177647     4.7176      7.528   228.4993 6.4573e+01     2.1070      0.010      0.015    22.5949 0.0000e+00
      0.010      0.021     5.9864     69.256     35.869  34.145123     4.7157      7.515   228.9108 6.4593e+01     2.1384      0.015      0.022    22.5949 0.0000e+00
      0.005      0.023     6.0140     69.575     35.843  34.119424     4.7024      7.505   229.4078 6.4199e+01     2.1636      0.003      0.004    22.5920 0.0000e+00
      0.006      0.023     6.0435     69.916     35.844  34.120996     4.6756      7.499   229.9482 6.3464e+01     2.1985     -0.003     -0.004    22.5902 0.0000e+00
      0.021      0.022     6.0674     70.193     35.889  34.164131     4.6583      7.493   230.2825 6.3069e+01     2.1944      0.020      0.029    22.5916 0.0000e+00
      0.040      0.020     6.0789     70.327     35.923  34.196343     4.6589      7.485   230.3520 6.3260e+01     2.1445      0.046      0.065    22.5917 0.0000e+00
      0.047      0.019     6.0768     70.303     35.919  34.192873     4.6458      7.476   230.4441 6.3419e+01     2.1131      0.049      0.072    22.5903 0.0000e+00
      0.043      0.015     6.0659     70.176     35.911  34.185700     4.6013      7.469   230.6223 6.3036e+01     2.1209      0.042      0.061    22.5908 0.0000e+00
      0.038      0.009     6.0490     69.980     35.898  34.173130     4.5722      7.466   230.7853 6.1476e+01     2.1468      0.035      0.051    22.5917 0.0000e+00
      0.039      0.004     6.0215     69.662     35.893  34.167925     4.5778      7.462   231.1243 5.8754e+01     2.1513      0.036      0.052    22.5914 0.0000e+00
      0.044      0.004     5.9820     69.204     35.913  34.186283     4.5680      7.457   231.5385 5.7639e+01     2.1462      0.043      0.063    22.5915 0.0000e+00
      0.050      0.005     5.9355     68.667     35.932  34.204551     4.5367      7.452   231.8357 5.8341e+01     2.1452      0.051      0.073    22.5921 0.0000e+00
      0.051      0.006     5.8902     68.145     35.924  34.198247     4.5213      7.449   232.1366 5.9563e+01     2.1392      0.050      0.072    22.5917 0.0000e+00
      0.049      0.005     5.8536     67.723     35.898  34.173579     4.5291      7.447   232.4230 6.0686e+01     2.1651      0.047      0.068    22.5905 0.0000e+00
      0.049      0.004     5.8244     67.386     35.883  34.160355     4.5937      7.444   232.7180 6.1138e+01     2.1837      0.047      0.069    22.5906 0.0000e+00
      0.050      0.005     5.7985     67.088     35.888  34.165400     4.7056      7.439   233.0355 6.1506e+01     2.1512      0.049      0.071    22.5914 0.0000e+00
      0.051      0.007     5.7768     66.836     35.894  34.171060     4.7697      7.434   233.3362 6.0752e+01     2.1379      0.049      0.071    22.5918 0.0000e+00
      0.053      0.007     5.7613     66.654     35.890  34.165275     4.7797      7.428   233.6871 5.9484e+01     2.1751      0.051      0.073    22.5930 0.0000e+00
      0.058      0.005     5.7504     66.527     35.884  34.158970     4.7811      7.423   233.9223 5.7992e+01     2.2042      0.056      0.081    22.5944 0.0000e+00
      0.063      0.002     5.7448     66.463     35.883  34.158335     4.7505      7.421   234.1153 5.6272e+01     2.1850      0.064      0.092    22.5958 0.0000e+00
      0.063      0.000     5.7495     66.519     35.881  34.157595     4.6845      7.419   234.4713 5.5651e+01     2.1566      0.064      0.093    22.5956 0.0000e+00
