* Sea-Bird SBE19plus  Data File:
* FileName = C:\DATA\20180917_fcr_0005.hex
* Software version 2.6.3.104 SB_Terminal.dll
* Temperature SN = 7809
* Conductivity SN = 7809
* System UpLoad Time = Sep 17 2018 17:52:42
* <ApplicationData>
* <Seaterm232>
* <SoftwareVersion>2.6.3.104</SoftwareVersion>
* <BuildDate>30-Jun-2017</BuildDate>
* </Seaterm232>
* </ApplicationData>
* cast   5 17 Sep 2018 17:52:17 samples 2482 to 3649, avg = 1, stop = mag switch
# nquan = 15
# nvalues = 1047                        
# units = specified
# name 0 = depFM: Depth [fresh water, m]
# name 1 = dz/dtM: Descent Rate [m/s]
# name 2 = sbeox0Mg/L: Oxygen, SBE 43 [mg/l]
# name 3 = sbeox0PS: Oxygen, SBE 43 [% saturation]
# name 4 = specc: Specific Conductance [uS/cm]
# name 5 = c0uS/cm: Conductivity [uS/cm]
# name 6 = flECO-AFL: Fluorescence, WET Labs ECO-AFL/FL [mg/m^3]
# name 7 = ph: pH
# name 8 = orp: Oxidation Reduction Potential [mV]
# name 9 = par/sat/log: PAR/Logarithmic, Satlantic
# name 10 = turbWETntu0: Turbidity, WET Labs ECO [NTU]
# name 11 = prdM: Pressure, Strain Gauge [db]
# name 12 = prdE: Pressure, Strain Gauge [psi]
# name 13 = tv290C: Temperature [ITS-90, deg C]
# name 14 = flag:  0.000e+00
# span 0 =     -0.604,      9.197       
# span 1 =      0.000,      0.121       
# span 2 =    -0.0456,     8.3309       
# span 3 =     -0.506,     96.937       
# span 4 =      0.435,     97.196       
# span 5 =   0.429606,  74.539577       
# span 6 =    -0.1946,    10.3278       
# span 7 =      6.246,      7.871       
# span 8 =  -273.8297,   679.3751       
# span 9 = 1.2534e-01, 3.3319e+02       
# span 10 =    -0.2711,    67.4917      
# span 11 =     -0.592,      9.019      
# span 12 =     -0.859,     13.082      
# span 13 =    12.8708,    24.4031      
# span 14 = 0.0000e+00, 0.0000e+00      
# interval = seconds: 0.25
# start_time = Sep 17 2018 17:52:17 [Instrument's time stamp, header]
# bad_flag = -9.990e-29
# <Sensors count="9" >
#   <sensor Channel="1" >
#     <!-- Count, Temperature -->
#     <TemperatureSensor SensorID="58" >
#       <SerialNumber>7809</SerialNumber>
#       <CalibrationDate>09-Mar-18</CalibrationDate>
#       <A0>1.21093245e-003</A0>
#       <A1>2.84356597e-004</A1>
#       <A2>-1.94507398e-006</A2>
#       <A3>2.12806664e-007</A3>
#       <Slope>1.00000000</Slope>
#       <Offset>0.0000</Offset>
#     </TemperatureSensor>
#   </sensor>
#   <sensor Channel="2" >
#     <!-- Frequency 0, Conductivity -->
#     <ConductivitySensor SensorID="3" >
#       <SerialNumber>7809</SerialNumber>
#       <CalibrationDate>09-Mar-18</CalibrationDate>
#       <UseG_J>1</UseG_J>
#       <!-- Cell const and series R are applicable only for wide range sensors. -->
#       <SeriesR>0.0000</SeriesR>
#       <CellConst>2000.0000</CellConst>
#       <ConductivityType>0</ConductivityType>
#       <Coefficients equation="0" >
#         <A>0.00000000e+000</A>
#         <B>0.00000000e+000</B>
#         <C>0.00000000e+000</C>
#         <D>0.00000000e+000</D>
#         <M>0.0</M>
#         <CPcor>-9.57000000e-008</CPcor>
#       </Coefficients>
#       <Coefficients equation="1" >
#         <G>-1.00672082e+000</G>
#         <H>1.26906489e-001</H>
#         <I>-1.40584351e-004</I>
#         <J>2.47837121e-005</J>
#         <CPcor>-9.57000000e-008</CPcor>
#         <CTcor>3.2500e-006</CTcor>
#         <!-- WBOTC not applicable unless ConductivityType = 1. -->
#         <WBOTC>0.00000000e+000</WBOTC>
#       </Coefficients>
#       <Slope>1.00000000</Slope>
#       <Offset>0.00000</Offset>
#     </ConductivitySensor>
#   </sensor>
#   <sensor Channel="3" >
#     <!-- Count, Pressure, Strain Gauge -->
#     <PressureSensor SensorID="46" >
#       <SerialNumber>7809</SerialNumber>
#       <CalibrationDate>07-Mar-18</CalibrationDate>
#       <PA0>-4.08176359e-002</PA0>
#       <PA1>4.85188419e-004</PA1>
#       <PA2>-3.51168169e-012</PA2>
#       <PTEMPA0>-5.37806900e+001</PTEMPA0>
#       <PTEMPA1>5.36620721e+001</PTEMPA1>
#       <PTEMPA2>4.87214332e-002</PTEMPA2>
#       <PTCA0>5.25213435e+005</PTCA0>
#       <PTCA1>1.79532409e+000</PTCA1>
#       <PTCA2>-2.84353509e-001</PTCA2>
#       <PTCB0>2.51668750e+001</PTCB0>
#       <PTCB1>3.75000000e-004</PTCB1>
#       <PTCB2>0.00000000e+000</PTCB2>
#       <Offset>0.000000</Offset>
#     </PressureSensor>
#   </sensor>
#   <sensor Channel="4" >
#     <!-- A/D voltage 0, pH -->
#     <pH_Sensor SensorID="43" >
#       <SerialNumber>0363</SerialNumber>
#       <CalibrationDate>16-Mar-18</CalibrationDate>
#       <Slope>4.6194</Slope>
#       <Offset>2.5947</Offset>
#     </pH_Sensor>
#   </sensor>
#   <sensor Channel="5" >
#     <!-- A/D voltage 1, Oxidation Reduction Potential -->
#     <OxidationReductionPotentialSensor SensorID="41" >
#       <SerialNumber>0363</SerialNumber>
#       <CalibrationDate>16-Mar-18</CalibrationDate>
#       <B>2.499480</B>
#       <M>-0.496195</M>
#       <Offset>0.0</Offset>
#     </OxidationReductionPotentialSensor>
#   </sensor>
#   <sensor Channel="6" >
#     <!-- A/D voltage 2, Oxygen, SBE 43 -->
#     <OxygenSensor SensorID="38" >
#       <SerialNumber>0434</SerialNumber>
#       <CalibrationDate>13-Mar-18</CalibrationDate>
#       <Use2007Equation>1</Use2007Equation>
#       <CalibrationCoefficients equation="0" >
#         <!-- Coefficients for Owens-Millard equation. -->
#         <Boc>0.0000</Boc>
#         <Soc>0.0000e+000</Soc>
#         <offset>0.0000</offset>
#         <Pcor>0.00e+000</Pcor>
#         <Tcor>0.0000</Tcor>
#         <Tau>0.0</Tau>
#       </CalibrationCoefficients>
#       <CalibrationCoefficients equation="1" >
#         <!-- Coefficients for Sea-Bird equation - SBE calibration in 2007 and later. -->
#         <Soc>4.5718e-001</Soc>
#         <offset>-0.6113</offset>
#         <A>-4.0649e-003</A>
#         <B> 2.0945e-004</B>
#         <C>-3.3182e-006</C>
#         <D0> 2.5826e+000</D0>
#         <D1> 1.92634e-004</D1>
#         <D2>-4.64803e-002</D2>
#         <E> 3.6000e-002</E>
#         <Tau20> 1.2200</Tau20>
#         <H1>-3.3000e-002</H1>
#         <H2> 5.0000e+003</H2>
#         <H3> 1.4500e+003</H3>
#       </CalibrationCoefficients>
#     </OxygenSensor>
#   </sensor>
#   <sensor Channel="7" >
#     <!-- A/D voltage 3, PAR/Logarithmic, Satlantic -->
#     <PARLog_SatlanticSensor SensorID="76" >
#       <SerialNumber>1122</SerialNumber>
#       <CalibrationDate>22-Jun-2017</CalibrationDate>
#       <a0>9.6090e-001</a0>
#       <a1>8.0780e-001</a1>
#       <Im>1.3589e+000</Im>
#       <Multiplier>1.0000e+000</Multiplier>
#     </PARLog_SatlanticSensor>
#   </sensor>
#   <sensor Channel="8" >
#     <!-- A/D voltage 4, Fluorometer, WET Labs ECO-AFL/FL -->
#     <FluoroWetlabECO_AFL_FL_Sensor SensorID="20" >
#       <SerialNumber>FLNTURT-2496</SerialNumber>
#       <CalibrationDate>25-Jan-2017</CalibrationDate>
#       <ScaleFactor>5.30000000e+001</ScaleFactor>
#       <!-- Dark output -->
#       <Vblank>0.0560</Vblank>
#     </FluoroWetlabECO_AFL_FL_Sensor>
#   </sensor>
#   <sensor Channel="9" >
#     <!-- A/D voltage 5, Turbidity Meter, WET Labs, ECO-NTU -->
#     <TurbidityMeter SensorID="67" >
#       <SerialNumber>FLNTURT-2496</SerialNumber>
#       <CalibrationDate>25-Jan-2017</CalibrationDate>
#       <ScaleFactor>176.000000</ScaleFactor>
#       <!-- Dark output -->
#       <DarkVoltage>0.072000</DarkVoltage>
#     </TurbidityMeter>
#   </sensor>
# </Sensors>
# datcnv_date = Sep 17 2018 17:58:17, 7.26.7.114 [datcnv_vars = 14]
# datcnv_in = C:\DATA\20180917_fcr50.hex C:\DATA\SBE19plusV2_7809.xmlcon
# datcnv_skipover = 0
# datcnv_ox_hysteresis_correction = yes
# datcnv_ox_tau_correction = yes
# filter_date = Sep 17 2018 17:59:16, 7.26.7.114
# filter_in = C:\DATA\20180917_fcr50.cnv
# filter_low_pass_tc_A = 0.030
# filter_low_pass_tc_B = 0.150
# filter_low_pass_A_vars = prdM prdE tv290C
# filter_low_pass_B_vars = depFM dz/dtM sbeox0Mg/L sbeox0PS specc c0uS/cm flECO-AFL ph orp par/sat/log turbWETntu0
# alignctd_date = Sep 17 2018 17:59:41, 7.26.7.114
# alignctd_in = C:\DATA\20180917_fcr50.cnv
# alignctd_adv = dz/dtM 1.000, sbeox0Mg/L 1.000, sbeox0PS 1.000, specc 1.000, c0uS/cm 1.000, flECO-AFL 1.000, ph 1.000, orp 1.000, turbWETntu0 1.000                                                                                 
# file_type = ascii
*END*
     -0.603 4.3139e-20     8.0082     95.848      0.474   0.467549    -0.1612      6.780  -273.8297 1.7642e+02     0.0292     -0.591     -0.857    24.3984 0.0000e+00
     -0.603 3.9217e-21     8.0070     95.833      0.459   0.453724    -0.1581      6.757  -224.2750 1.7707e+02    -0.0011     -0.592     -0.858    24.3983 0.0000e+00
     -0.603 3.5652e-22     8.0066     95.829      0.445   0.440097    -0.1590      6.758  -165.8277 1.7838e+02    -0.0771     -0.591     -0.857    24.3984 0.0000e+00
     -0.603 3.2410e-23     8.0075     95.839      0.435   0.429606    -0.1630      6.768  -107.5607 1.8543e+02    -0.1880     -0.591     -0.857    24.3985 0.0000e+00
     -0.603 2.9464e-24     8.0080     95.846      0.459   0.453703    -0.1788      6.779  -140.6338 1.9528e+02    -0.2430     -0.592     -0.858    24.3984 0.0000e+00
     -0.603 2.6786e-25     8.0073     95.838      0.483   0.477810    -0.1936      6.789  -173.8024 1.9674e+02    -0.2545     -0.591     -0.857    24.3985 0.0000e+00
     -0.603 2.4351e-26     8.0054     95.815      0.473   0.467435    -0.1946      6.796  -162.4636 1.9146e+02    -0.2360     -0.591     -0.857    24.3986 0.0000e+00
     -0.603 2.2137e-27     8.0039     95.797      0.460   0.455075    -0.1912      6.802  -173.7230 1.8939e+02    -0.1712     -0.591     -0.857    24.3988 0.0000e+00
     -0.603 2.0124e-28     8.0036     95.794      0.460   0.455199    -0.1892      6.805  -187.0749 1.9400e+02    -0.1116     -0.592     -0.858    24.3987 0.0000e+00
     -0.603 1.8295e-29     8.0040     95.800      0.475   0.468932    -0.1796      6.807  -185.4633 2.0003e+02    -0.0655     -0.591     -0.857    24.3990 0.0000e+00
     -0.603 1.6632e-30     8.0049     95.810      0.500   0.494296    -0.1672      6.809  -189.9434 2.2476e+02    -0.0101     -0.591     -0.857    24.3993 0.0000e+00
     -0.603 1.5120e-31     8.0060     95.823      0.515   0.508234    -0.1687      6.810  -189.5335 2.7481e+02     0.0085     -0.591     -0.857    24.3991 0.0000e+00
     -0.603 1.3745e-32     8.0074     95.840      0.517   0.510626    -0.1791      6.810  -184.4664 3.0750e+02    -0.0239     -0.592     -0.858    24.3993 0.0000e+00
     -0.603 1.2495e-33     8.0079     95.847      0.530   0.523224    -0.1824      6.810  -184.7740 3.1257e+02    -0.0653     -0.591     -0.857    24.3997 0.0000e+00
     -0.603 1.1360e-34     8.0072     95.838      0.540   0.533725    -0.1713      6.810  -182.9277 3.1292e+02    -0.0649     -0.591     -0.857    24.3997 0.0000e+00
     -0.603 1.0327e-35     8.0068     95.833      0.517   0.510773    -0.1650      6.809  -179.3510 3.1501e+02    -0.0193     -0.591     -0.857    24.3996 0.0000e+00
     -0.603 9.3880e-37     8.0068     95.833      0.505   0.499357    -0.1705      6.806  -175.6004 3.1821e+02    -0.0320     -0.592     -0.858    24.3997 0.0000e+00
     -0.603 8.5345e-38     8.0065     95.830      0.529   0.522520    -0.1735      6.804  -173.6298 3.2081e+02    -0.0674     -0.591     -0.857    24.3996 0.0000e+00
     -0.603 7.7590e-39     8.0063     95.827      0.544   0.537186    -0.1738      6.803  -172.0439 3.2224e+02    -0.0502     -0.591     -0.857    24.3997 0.0000e+00
     -0.603 7.0535e-40     8.0057     95.821      0.556   0.549858    -0.1738      6.801  -171.8259 3.2244e+02    -0.0376     -0.591     -0.857    24.3997 0.0000e+00
     -0.603 6.4125e-41     8.0055     95.818      0.555   0.548923    -0.1734      6.801  -174.8659 3.2113e+02    -0.0363     -0.592     -0.858    24.3996 0.0000e+00
     -0.603 5.8295e-42     8.0058     95.822      0.532   0.525875    -0.1694      6.800  -176.2775 3.1868e+02    -0.0033     -0.591     -0.857    24.3998 0.0000e+00
     -0.604 5.2995e-43     8.0058     95.821      0.532   0.524827    -0.1615      6.799  -178.5695 3.1623e+02     0.0250     -0.592     -0.858    24.3997 0.0000e+00
     -0.604 4.8176e-44     8.0063     95.826      0.543   0.536262    -0.1608      6.799  -187.1772 3.0813e+02     0.0007     -0.592     -0.859    24.3995 0.0000e+00
     -0.603 4.3797e-45     8.0070     95.835      0.544   0.537311    -0.1700      6.801  -185.5374 2.8776e+02    -0.0228     -0.591     -0.858    24.3996 0.0000e+00
     -0.603 3.9815e-46     8.0075     95.840      0.544   0.537511    -0.1720      6.804  -163.9917 2.4731e+02    -0.0150     -0.591     -0.857    24.3997 0.0000e+00
     -0.603 3.6196e-47     8.0077     95.842      0.545   0.538671    -0.1664      6.808  -173.1712 1.9226e+02    -0.0272     -0.591     -0.858    24.3997 0.0000e+00
     -0.603 3.2908e-48     8.0072     95.837      0.558   0.551346    -0.1667      6.808  -227.6092 1.6058e+02    -0.0480     -0.591     -0.857    24.3996 0.0000e+00
     -0.603 3.0256e-49     8.0067     95.832      0.571   0.563936    -0.1664      6.806  -259.3280 1.6288e+02    -0.0839     -0.591     -0.857    24.3996 0.0000e+00
     -0.603 6.4919e-50     8.0058     95.820      0.571   0.564070    -0.1625      6.803  -251.6714 1.7153e+02    -0.1559     -0.591     -0.858    24.3995 0.0000e+00
     -0.603 4.1745e-49     8.0048     95.807      0.560   0.552972    -0.1656      6.802  -157.9200 1.7671e+02    -0.1858     -0.591     -0.858    24.3996 0.0000e+00
     -0.603 4.5650e-48     8.0046     95.806      0.564   0.556565    -0.1767      6.805   -72.9079 1.8691e+02    -0.2011     -0.591     -0.858    24.3997 0.0000e+00
     -0.603 5.0212e-47     8.0047     95.807      0.615   0.607513    -0.1867      6.810  -165.0668 2.0286e+02    -0.2189     -0.591     -0.857    24.3998 0.0000e+00
     -0.603 5.5233e-46     8.0054     95.815      0.670   0.661690    -0.1846      6.814  -257.2011 2.1321e+02    -0.1879     -0.592     -0.858    24.3998 0.0000e+00
     -0.603 6.0757e-45     8.0065     95.829      0.713   0.704329    -0.1793      6.814  -247.6903 2.1085e+02    -0.1615     -0.592     -0.858    24.3996 0.0000e+00
     -0.603 6.6832e-44     8.0065     95.828      0.752   0.742585    -0.1774      6.814  -239.9615 2.0290e+02    -0.1748     -0.591     -0.858    24.3995 0.0000e+00
     -0.603 7.3516e-43     8.0063     95.826      0.753   0.743767    -0.1715      6.813  -241.2740 2.0184e+02    -0.1963     -0.591     -0.857    24.3993 0.0000e+00
     -0.603 8.0867e-42     8.0067     95.831      0.727   0.718623    -0.1629      6.812  -235.5114 2.1175e+02    -0.2078     -0.591     -0.857    24.3992 0.0000e+00
     -0.603 8.8954e-41     8.0059     95.821      0.701   0.692221    -0.1563      6.811  -220.5329 2.2757e+02    -0.2218     -0.591     -0.857    24.3990 0.0000e+00
     -0.603 9.7849e-40     8.0045     95.805      0.686   0.678189    -0.1558      6.810  -204.4586 2.4632e+02    -0.2126     -0.591     -0.858    24.3991 0.0000e+00
     -0.603 1.0763e-38     8.0042     95.801      0.684   0.675779    -0.1654      6.809  -195.1686 2.6566e+02    -0.1882     -0.591     -0.858    24.3991 0.0000e+00
     -0.603 1.1840e-37     8.0045     95.805      0.671   0.663087    -0.1815      6.809  -189.5150 2.8045e+02    -0.2012     -0.591     -0.857    24.3992 0.0000e+00
     -0.603 1.3024e-36     8.0055     95.816      0.660   0.651547    -0.1847      6.809  -184.7139 2.9201e+02    -0.2173     -0.591     -0.858    24.3994 0.0000e+00
     -0.603 1.4326e-35     8.0065     95.827      0.671   0.663075    -0.1772      6.809  -107.3493 3.0011e+02    -0.2008     -0.592     -0.858    24.3993 0.0000e+00
     -0.603 1.5759e-34     8.0066     95.830      0.684   0.675652    -0.1722      6.809   -21.7483 3.0196e+02    -0.1838     -0.591     -0.858    24.3992 0.0000e+00
     -0.603 1.7335e-33     8.0066     95.830      0.685   0.676794    -0.1704      6.810   -79.3731 3.0100e+02    -0.1958     -0.591     -0.857    24.3992 0.0000e+00
     -0.603 1.9068e-32     8.0065     95.829      0.685   0.676888    -0.1652      6.811  -155.4364 2.9841e+02    -0.2228     -0.591     -0.858    24.3992 0.0000e+00
     -0.603 2.0975e-31     8.0068     95.832      0.685   0.676782    -0.1556      6.810  -162.3376 2.9333e+02    -0.2365     -0.591     -0.857    24.3993 0.0000e+00
     -0.603 2.3072e-30     8.0071     95.836      0.684   0.675516    -0.1550      6.810  -163.4179 2.8825e+02    -0.2385     -0.591     -0.857    24.3992 0.0000e+00
     -0.603 2.5380e-29     8.0070     95.835      0.670   0.661577    -0.1668      6.811  -166.5191 2.8566e+02    -0.2479     -0.591     -0.858    24.3993 0.0000e+00
     -0.602 2.7918e-28     8.0064     95.828      0.643   0.635069    -0.1795      6.812  -169.2896 2.8491e+02    -0.2584     -0.591     -0.857    24.3993 0.0000e+00
     -0.602 3.0709e-27     8.0063     95.826      0.616   0.608656    -0.1797      6.813  -172.7391 2.8384e+02    -0.2438     -0.591     -0.857    24.3989 0.0000e+00
     -0.602 3.3780e-26     8.0074     95.839      0.603   0.595870    -0.1686      6.813  -173.6390 2.8271e+02    -0.2235     -0.591     -0.857    24.3991 0.0000e+00
     -0.602 3.7158e-25     8.0080     95.846      0.615   0.607295    -0.1647      6.814  -170.7915 2.8270e+02    -0.2268     -0.591     -0.857    24.3992 0.0000e+00
     -0.603 4.0874e-24     8.0078     95.843      0.628   0.619966    -0.1700      6.814  -166.6165 2.8276e+02    -0.2224     -0.591     -0.858    24.3990 0.0000e+00
     -0.603 4.4961e-23     8.0074     95.838      0.630   0.622251    -0.1685      6.814  -162.6524 2.8256e+02    -0.1999     -0.591     -0.857    24.3991 0.0000e+00
     -0.603 4.9458e-22     8.0071     95.835      0.643   0.634923    -0.1741      6.814  -161.4075 2.8251e+02    -0.1993     -0.590     -0.856    24.3990 0.0000e+00
     -0.603 5.4403e-21     8.0075     95.839      0.654   0.646358    -0.1829      6.814  -159.8241 2.8243e+02    -0.2156     -0.591     -0.858    24.3989 0.0000e+00
     -0.603 5.9844e-20     8.0081     95.846      0.642   0.633695    -0.1736      6.814  -152.9723 2.8290e+02    -0.2133     -0.591     -0.858    24.3988 0.0000e+00
     -0.603 6.5828e-19     8.0079     95.843      0.616   0.608644    -0.1626      6.813  -143.9518 2.8378e+02    -0.2028     -0.591     -0.857    24.3986 0.0000e+00
     -0.603 7.2411e-18     8.0071     95.834      0.604   0.597104    -0.1599      6.812  -133.4428 2.8414e+02    -0.2101     -0.591     -0.857    24.3987 0.0000e+00
     -0.603 7.9652e-17     8.0058     95.818      0.629   0.620994    -0.1682      6.811  -117.7126 2.8486e+02    -0.2412     -0.591     -0.858    24.3987 0.0000e+00
     -0.603 8.7617e-16     8.0048     95.806      0.652   0.643844    -0.1804      6.811   -99.7673 2.8724e+02    -0.2428     -0.591     -0.857    24.3986 0.0000e+00
     -0.603 9.6379e-15     8.0056     95.816      0.628   0.619735    -0.1780      6.810   -82.9535 2.9002e+02    -0.1986     -0.592     -0.858    24.3984 0.0000e+00
     -0.603 1.0602e-13     8.0068     95.831      0.590   0.583146    -0.1677      6.810   -74.7964 2.9199e+02    -0.1957     -0.591     -0.857    24.3985 0.0000e+00
     -0.602 1.1662e-12     8.0066     95.828      0.589   0.581919    -0.1662      6.810   -64.8090 2.9390e+02    -0.2384     -0.591     -0.857    24.3986 0.0000e+00
     -0.602 1.2828e-11     8.0055     95.815      0.612   0.604894    -0.1686      6.810   -33.3515 2.9565e+02    -0.2572     -0.591     -0.857    24.3985 0.0000e+00
     -0.602 1.4111e-10     8.0055     95.815      0.615   0.607284    -0.1600      6.809   -24.2344 2.9241e+02    -0.2398     -0.590     -0.856    24.3985 0.0000e+00
