* Sea-Bird SBE19plus  Data File:
* FileName = C:\DATA\092320_ccr50_0003.hex
* Software version 2.8.0.119
* Temperature SN = 7809
* Conductivity SN = 7809
* System UpLoad Time = Sep 23 2020 19:43:41
* <ApplicationData>
* <Seaterm232>
* <SoftwareVersion>2.8.0.119</SoftwareVersion>
* <BuildDate>07-Nov-2018</BuildDate>
* </Seaterm232>
* </ApplicationData>
* <InstrumentState>
* <HardwareData DeviceType='SBE19plus' SerialNumber='01907809'>
*
*    <Manufacturer>Sea-Bird Electronics, Inc.</Manufacturer>
*
*    <FirmwareVersion>3.1.8</FirmwareVersion>
*
*    <FirmwareDate>Mar  9 2016 16:22:29</FirmwareDate>
*
*    <CommandSetVersion>1.4</CommandSetVersion>
*
*    <PCBAssembly PCBSerialNum='120721' AssemblyNum='41054J'/>
*
*    <PCBAssembly PCBSerialNum='120715' AssemblyNum='41967A'/>
*
*    <PCBAssembly PCBSerialNum='116699' AssemblyNum='41606'/>
*
*    <PCBAssembly PCBSerialNum='120719' AssemblyNum='41059D'/>
*
*    <MfgDate>28-Apr-2017</MfgDate>
*
*    <InternalSensors>
*
*       <Sensor id='Main Temperature'>
*
*          <type>temperature0</type>
*
*          <SerialNumber>01907809</SerialNumber>
*
*       </Sensor>
*
*       <Sensor id='Main Conductivity'>
*
*          <type>conductivity-0</type>
*
*          <SerialNumber>01907809</SerialNumber>
*
*       </Sensor>
*
*       <Sensor id='Main Pressure'>
*
*          <type>strain-0</type>
*
*          <SerialNumber>10586018</SerialNumber>
*
*       </Sensor>
*
*    </InternalSensors>
*
*    <ExternalSensors>
*
*       <Sensor id='volt 0'>
*
*          <type>pH</type>
*
*          <SerialNumber>27-0363</SerialNumber>
*
*       </Sensor>
*
*       <Sensor id='volt 1'>
*
*          <type>ORP</type>
*
*          <SerialNumber>27-0363</SerialNumber>
*
*       </Sensor>
*
*       <Sensor id='volt 2'>
*
*          <type>OXY</type>
*
*          <SerialNumber>43-0434</SerialNumber>
*
*       </Sensor>
*
*       <Sensor id='volt 3'>
*
*          <type>PAR</type>
*
*          <SerialNumber>1122</SerialNumber>
*
*       </Sensor>
*
*       <Sensor id='volt 4'>
*
*          <type>ECO AFL/FL</type>
*
*          <SerialNumber>FLNTURT-2496</SerialNumber>
*
*       </Sensor>
*
*       <Sensor id='volt 5'>
*
*          <type>ECO-NTU</type>
*
*          <SerialNumber>FLNTURT-2496</SerialNumber>
*
*       </Sensor>
*
*       <Sensor id='serial'>
*
*          <type>not assigned</type>
*
*          <SerialNumber>not assigned</SerialNumber>
*
*       </Sensor>
*
*    </ExternalSensors>
*
* </HardwareData>
* <StatusData DeviceType='SBE19plus' SerialNumber='01907809'>
*
*    <DateTime>2020-09-23T06:39:39</DateTime>
*
*    <LoggingState>not logging</LoggingState>
*
*    <EventSummary numEvents='0'/>
*
*    <Power>
*
*       <vMain>12.1</vMain>
*
*       <vLith>8.4</vLith>
*
*       <iMain>63.0</iMain>
*
*       <iPump>47.6</iPump>
*
*       <iExt01>21.0</iExt01>
*
*       <iExt2345>40.6</iExt2345>
*
*    </Power>
*
*    <MemorySummary>
*
*       <Bytes>248860</Bytes>
*
*       <Samples>10820</Samples>
*
*       <SamplesFree>2849968</SamplesFree>
*
*       <SampleLength>23</SampleLength>
*
*       <Profiles>4</Profiles>
*
*    </MemorySummary>
*
* </StatusData>
* <ConfigurationData DeviceType='SBE19plus' SerialNumber='01907809'>
*
*    <ProfileMode>
*
*       <ScansToAverage>1</ScansToAverage>
*
*       <MinimumCondFreq>5</MinimumCondFreq>
*
*       <PumpDelay>30</PumpDelay>
*
*       <AutoRun>no</AutoRun>
*
*       <IgnoreSwitch>no</IgnoreSwitch>
*
*    </ProfileMode>
*
*    <Battery>
*
*       <Type>alkaline</Type>
*
*       <CutOff>7.5</CutOff>
*
*    </Battery>
*
*    <DataChannels>
*
*       <ExtVolt0>yes</ExtVolt0>
*
*       <ExtVolt1>yes</ExtVolt1>
*
*       <ExtVolt2>yes</ExtVolt2>
*
*       <ExtVolt3>yes</ExtVolt3>
*
*       <ExtVolt4>yes</ExtVolt4>
*
*       <ExtVolt5>yes</ExtVolt5>
*
*       <SBE38>no</SBE38>
*
*       <WETLABS>no</WETLABS>
*
*       <OPTODE>no</OPTODE>
*
*       <SBE63>no</SBE63>
*
*       <SeaFET>no</SeaFET>
*
*       <GTD>no</GTD>
*
*    </DataChannels>
*
*    <EchoCharacters>yes</EchoCharacters>
*
*    <OutputExecutedTag>yes</OutputExecutedTag>
*
*    <OutputFormat>raw HEX</OutputFormat>
*
* </ConfigurationData>
* <CalibrationCoefficients DeviceType='SBE19plus' SerialNumber='01907809'>
*
*    <Calibration format='TEMP1' id='Main Temperature'>
*
*       <SerialNum>01907809</SerialNum>
*
*       <CalDate>17-Feb-20</CalDate>
*
*       <TA0>1.231828e-03</TA0>
*
*       <TA1>2.765479e-04</TA1>
*
*       <TA2>-9.738161e-07</TA2>
*
*       <TA3>1.725813e-07</TA3>
*
*       <TOFFSET>0.000000e+00</TOFFSET>
*
*    </Calibration>
*
*    <Calibration format='WBCOND0' id='Main Conductivity'>
*
*       <SerialNum>01907809</SerialNum>
*
*       <CalDate>17-Feb-20</CalDate>
*
*       <G>-1.004905e+00</G>
*
*       <H>1.264249e-01</H>
*
*       <I>-3.338479e-05</I>
*
*       <J>1.822406e-05</J>
*
*       <CPCOR>-9.570000e-08</CPCOR>
*
*       <CTCOR>3.250000e-06</CTCOR>
*
*       <CSLOPE>1.000000e+00</CSLOPE>
*
*    </Calibration>
*
*    <Calibration format='STRAIN0' id='Main Pressure'>
*
*       <SerialNum>10586018</SerialNum>
*
*       <CalDate>30-Jan-20</CalDate>
*
*       <PA0>-8.839367e-03</PA0>
*
*       <PA1>4.852353e-04</PA1>
*
*       <PA2>-3.463847e-12</PA2>
*
*       <PTCA0>5.254672e+05</PTCA0>
*
*       <PTCA1>5.138564e+00</PTCA1>
*
*       <PTCA2>-2.726934e-01</PTCA2>
*
*       <PTCB0>2.516687e+01</PTCB0>
*
*       <PTCB1>3.750000e-04</PTCB1>
*
*       <PTCB2>0.000000e+00</PTCB2>
*
*       <PTEMPA0>-5.396332e+01</PTEMPA0>
*
*       <PTEMPA1>5.390761e+01</PTEMPA1>
*
*       <PTEMPA2>-2.231787e-02</PTEMPA2>
*
*       <POFFSET>6.460000e-01</POFFSET>
*
*       <PRANGE>1.600000e+02</PRANGE>
*
*    </Calibration>
*
*    <Calibration format='VOLT0' id='Volt 0'>
*
*       <OFFSET>-4.920000e-02</OFFSET>
*
*       <SLOPE>1.248122e+00</SLOPE>
*
*    </Calibration>
*
*    <Calibration format='VOLT0' id='Volt 1'>
*
*       <OFFSET>-4.784000e-02</OFFSET>
*
*       <SLOPE>1.248871e+00</SLOPE>
*
*    </Calibration>
*
*    <Calibration format='VOLT0' id='Volt 2'>
*
*       <OFFSET>-4.864632e-02</OFFSET>
*
*       <SLOPE>1.248714e+00</SLOPE>
*
*    </Calibration>
*
*    <Calibration format='VOLT0' id='Volt 3'>
*
*       <OFFSET>-4.743790e-02</OFFSET>
*
*       <SLOPE>1.248571e+00</SLOPE>
*
*    </Calibration>
*
*    <Calibration format='VOLT0' id='Volt 4'>
*
*       <OFFSET>-4.671263e-02</OFFSET>
*
*       <SLOPE>1.248951e+00</SLOPE>
*
*    </Calibration>
*
*    <Calibration format='VOLT0' id='Volt 5'>
*
*       <OFFSET>-4.871053e-02</OFFSET>
*
*       <SLOPE>1.249136e+00</SLOPE>
*
*    </Calibration>
*
*    <Calibration format='FREQ0' id='external frequency channel'>
*
*       <EXTFREQSF>1.000014e+00</EXTFREQSF>
*
*    </Calibration>
*
* </CalibrationCoefficients>
* <EventCounters DeviceType='SBE19plus' SerialNumber='01907809'>
*
*    <EventSummary numEvents='0'/>
*
* </EventCounters></InstrumentState>
* <Headers>
*
* cast   3 23 Sep 2020 02:29:05 samples 8276 to 9016, avg = 1, stop = mag switch
*
# nquan = 16
# nvalues = 741                         
# units = specified
# name 0 = depFM: Depth [fresh water, m]
# name 1 = dz/dtM: Descent Rate [m/s]
# name 2 = sbeox0ML/L: Oxygen, SBE 43 [ml/l]
# name 3 = sbeox0PS: Oxygen, SBE 43 [% saturation]
# name 4 = specc: Specific Conductance [uS/cm]
# name 5 = c0uS/cm: Conductivity [uS/cm]
# name 6 = flECO-AFL: Fluorescence, WET Labs ECO-AFL/FL [mg/m^3]
# name 7 = ph: pH
# name 8 = orp: Oxidation Reduction Potential [mV]
# name 9 = par/sat/log: PAR/Logarithmic, Satlantic
# name 10 = turbWETntu0: Turbidity, WET Labs ECO [NTU]
# name 11 = prdM: Pressure, Strain Gauge [db]
# name 12 = prdE: Pressure, Strain Gauge [psi]
# name 13 = tv290C: Temperature [ITS-90, deg C]
# name 14 = density00: Density [density, kg/m^3]
# name 15 = flag:  0.000e+00
# span 0 =     -0.485,      3.129       
# span 1 =     -0.239,      0.141       
# span 2 =     0.0367,     6.0989       
# span 3 =      0.600,     96.132       
# span 4 =      2.677,    218.654       
# span 5 =   2.484036, 194.519330       
# span 6 =    -2.6452,   259.7280       
# span 7 =     15.493,     15.651       
# span 8 =  -237.3273,   218.8014       
# span 9 = 2.1766e+01, 8.9587e+02       
# span 10 =    -6.7108,   962.0867      
# span 11 =     -0.475,      3.069      
# span 12 =     -0.689,      4.451      
# span 13 =    18.6617,    21.8810      
# span 14 =   997.8206,   998.5507      
# span 15 = 0.0000e+00, 0.0000e+00      
# interval = seconds: 0.25
# start_time = Sep 23 2020 02:29:05 [Instrument's time stamp, header]
# bad_flag = -9.990e-29
# <Sensors count="9" >
#   <sensor Channel="1" >
#     <!-- Count, Temperature -->
#     <TemperatureSensor SensorID="58" >
#       <SerialNumber>7809</SerialNumber>
#       <CalibrationDate>17-Feb-20</CalibrationDate>
#       <A0>1.23182765e-003</A0>
#       <A1>2.76547921e-004</A1>
#       <A2>-9.73816136e-007</A2>
#       <A3>1.72581310e-007</A3>
#       <Slope>1.00000000</Slope>
#       <Offset>0.0000</Offset>
#     </TemperatureSensor>
#   </sensor>
#   <sensor Channel="2" >
#     <!-- Frequency 0, Conductivity -->
#     <ConductivitySensor SensorID="3" >
#       <SerialNumber>7809</SerialNumber>
#       <CalibrationDate>17-Feb-20</CalibrationDate>
#       <UseG_J>1</UseG_J>
#       <!-- Cell const and series R are applicable only for wide range sensors. -->
#       <SeriesR>0.0000</SeriesR>
#       <CellConst>2000.0000</CellConst>
#       <ConductivityType>0</ConductivityType>
#       <Coefficients equation="0" >
#         <A>0.00000000e+000</A>
#         <B>0.00000000e+000</B>
#         <C>0.00000000e+000</C>
#         <D>0.00000000e+000</D>
#         <M>0.0</M>
#         <CPcor>-9.57000000e-008</CPcor>
#       </Coefficients>
#       <Coefficients equation="1" >
#         <G>-1.00490463e+000</G>
#         <H>1.26424869e-001</H>
#         <I>-3.33847890e-005</I>
#         <J>1.82240562e-005</J>
#         <CPcor>-9.57000000e-008</CPcor>
#         <CTcor>3.2500e-006</CTcor>
#         <!-- WBOTC not applicable unless ConductivityType = 1. -->
#         <WBOTC>0.00000000e+000</WBOTC>
#       </Coefficients>
#       <Slope>1.00000000</Slope>
#       <Offset>0.00000</Offset>
#     </ConductivitySensor>
#   </sensor>
#   <sensor Channel="3" >
#     <!-- Count, Pressure, Strain Gauge -->
#     <PressureSensor SensorID="46" >
#       <SerialNumber>7809</SerialNumber>
#       <CalibrationDate>30-Jan-20</CalibrationDate>
#       <PA0>-8.83936748e-003</PA0>
#       <PA1>4.85235293e-004</PA1>
#       <PA2>-3.46384727e-012</PA2>
#       <PTEMPA0>-5.39633232e+001</PTEMPA0>
#       <PTEMPA1>5.39076104e+001</PTEMPA1>
#       <PTEMPA2>-2.23178720e-002</PTEMPA2>
#       <PTCA0>5.25467230e+005</PTCA0>
#       <PTCA1>5.13856356e+000</PTCA1>
#       <PTCA2>-2.72693365e-001</PTCA2>
#       <PTCB0>2.51668750e+001</PTCB0>
#       <PTCB1>3.75000000e-004</PTCB1>
#       <PTCB2>0.00000000e+000</PTCB2>
#       <Offset>0.000000</Offset>
#     </PressureSensor>
#   </sensor>
#   <sensor Channel="4" >
#     <!-- A/D voltage 0, Oxygen, SBE 43 -->
#     <OxygenSensor SensorID="38" >
#       <SerialNumber>0434</SerialNumber>
#       <CalibrationDate>17-Mar-20</CalibrationDate>
#       <Use2007Equation>1</Use2007Equation>
#       <CalibrationCoefficients equation="0" >
#         <!-- Coefficients for Owens-Millard equation. -->
#         <Boc>0.0000</Boc>
#         <Soc>0.0000e+000</Soc>
#         <offset>0.0000</offset>
#         <Pcor>0.00e+000</Pcor>
#         <Tcor>0.0000</Tcor>
#         <Tau>0.0</Tau>
#       </CalibrationCoefficients>
#       <CalibrationCoefficients equation="1" >
#         <!-- Coefficients for Sea-Bird equation - SBE calibration in 2007 and later. -->
#         <Soc>4.3425e-001</Soc>
#         <offset>-0.6091</offset>
#         <A>-4.2837e-003</A>
#         <B> 1.6743e-004</B>
#         <C>-2.2978e-006</C>
#         <D0> 2.5826e+000</D0>
#         <D1> 1.92634e-004</D1>
#         <D2>-4.64803e-002</D2>
#         <E> 3.6000e-002</E>
#         <Tau20> 1.3000</Tau20>
#         <H1>-3.3000e-002</H1>
#         <H2> 5.0000e+003</H2>
#         <H3> 1.4500e+003</H3>
#       </CalibrationCoefficients>
#     </OxygenSensor>
#   </sensor>
#   <sensor Channel="5" >
#     <!-- A/D voltage 1, PAR/Logarithmic, Satlantic -->
#     <PARLog_SatlanticSensor SensorID="76" >
#       <SerialNumber>1122</SerialNumber>
#       <CalibrationDate>08-May-2019</CalibrationDate>
#       <a0>9.7456e-001</a0>
#       <a1>8.1640e-001</a1>
#       <Im>1.3589e+000</Im>
#       <Multiplier>1.0000e+000</Multiplier>
#     </PARLog_SatlanticSensor>
#   </sensor>
#   <sensor Channel="6" >
#     <!-- A/D voltage 2, pH -->
#     <pH_Sensor SensorID="43" >
#       <SerialNumber>0363</SerialNumber>
#       <CalibrationDate>24-Feb-20</CalibrationDate>
#       <Slope>4.6470</Slope>
#       <Offset>2.5043</Offset>
#     </pH_Sensor>
#   </sensor>
#   <sensor Channel="7" >
#     <!-- A/D voltage 3, Oxidation Reduction Potential -->
#     <OxidationReductionPotentialSensor SensorID="41" >
#       <SerialNumber>0363</SerialNumber>
#       <CalibrationDate>24-Feb-20</CalibrationDate>
#       <B>2.499480</B>
#       <M>-0.496195</M>
#       <Offset>0.0</Offset>
#     </OxidationReductionPotentialSensor>
#   </sensor>
#   <sensor Channel="8" >
#     <!-- A/D voltage 4, Fluorometer, WET Labs ECO-AFL/FL -->
#     <FluoroWetlabECO_AFL_FL_Sensor SensorID="20" >
#       <SerialNumber>FLNTURT-2496</SerialNumber>
#       <CalibrationDate>31-Jan-2020</CalibrationDate>
#       <ScaleFactor>5.50000000e+001</ScaleFactor>
#       <!-- Dark output -->
#       <Vblank>0.0700</Vblank>
#     </FluoroWetlabECO_AFL_FL_Sensor>
#   </sensor>
#   <sensor Channel="9" >
#     <!-- A/D voltage 5, Turbidity Meter, WET Labs, ECO-NTU -->
#     <TurbidityMeter SensorID="67" >
#       <SerialNumber>FLNTURT-2496</SerialNumber>
#       <CalibrationDate>31-Jan-20</CalibrationDate>
#       <ScaleFactor>198.000000</ScaleFactor>
#       <!-- Dark output -->
#       <DarkVoltage>0.070000</DarkVoltage>
#     </TurbidityMeter>
#   </sensor>
# </Sensors>
# datcnv_date = Sep 25 2020 13:13:18, 7.26.7.129 [datcnv_vars = 15]
# datcnv_in = C:\DATA\092320_ccr50_0003.hex C:\DATA\SBE19plusV2_7809.xmlcon
# datcnv_skipover = 0
# datcnv_ox_hysteresis_correction = yes
# datcnv_ox_tau_correction = yes
# filter_date = Sep 25 2020 13:14:07, 7.26.7.129
# filter_in = C:\DATA\092320_ccr50_0003.cnv
# filter_low_pass_tc_A = 0.030
# filter_low_pass_tc_B = 0.150
# filter_low_pass_A_vars = sbeox0ML/L prdM prdE tv290C density00
# filter_low_pass_B_vars = depFM dz/dtM sbeox0PS specc c0uS/cm flECO-AFL ph orp par/sat/log turbWETntu0
# alignctd_date = Sep 25 2020 13:14:38, 7.26.7.129
# alignctd_in = C:\DATA\092320_ccr50_0003.cnv
# alignctd_adv = dz/dtM 1.000, sbeox0PS 1.000, specc 1.000, c0uS/cm 1.000, flECO-AFL 1.000, ph 1.000, orp 1.000, turbWETntu0 1.000                                                                                                   
# file_type = ascii
*END*
     -0.481      0.001     2.0260     31.121    218.654 190.965488    -0.9192     15.575  -237.3273 2.1956e+02    -0.2218     -0.472     -0.685    18.6617   998.5507 0.0000e+00
     -0.481      0.003     2.0260     31.156    218.610 190.929560    -0.9127     15.577  -235.7954 2.5324e+02    -0.2201     -0.472     -0.685    18.6623   998.5506 0.0000e+00
     -0.482      0.008     2.0239     31.190    218.551 190.880685    -0.8875     15.581  -220.8324 2.9000e+02    -0.2293     -0.473     -0.686    18.6629   998.5505 0.0000e+00
     -0.482      0.018     2.0283     31.230    218.483 190.822156    -0.8818     15.611  -128.4255 3.2278e+02    -0.2298     -0.472     -0.685    18.6636   998.5504 0.0000e+00
     -0.479      0.032     2.0340     31.276    218.380 190.733459    -0.8915     15.651    21.9555 3.5283e+02    -0.1577     -0.472     -0.685    18.6641   998.5503 0.0000e+00
     -0.472      0.052     2.0343     31.315    218.198 190.575594    -0.9004     15.645   124.6780 3.7743e+02    -0.1128     -0.464     -0.673    18.6647   998.5502 0.0000e+00
     -0.457      0.076     2.0371     31.328    218.050 190.448086    -0.9122     15.613   177.0463 3.9304e+02    -0.0989     -0.450     -0.653    18.6651   998.5502 0.0000e+00
     -0.435      0.098     2.0394     31.342    218.000 190.406716    -0.9207     15.592   193.2774 3.9884e+02    -0.0240     -0.431     -0.624    18.6653   998.5501 0.0000e+00
     -0.405      0.113     2.0426     31.402    217.984 190.395107    -0.9164     15.574   181.8878 3.9840e+02     0.1400     -0.401     -0.581    18.6655   998.5502 0.0000e+00
     -0.367      0.120     2.0462     31.509    217.954 190.371662    -0.8893     15.553   173.2983 3.9140e+02     1.4381     -0.362     -0.525    18.6657   998.5503 0.0000e+00
     -0.325      0.122     2.0464     31.688    217.959 190.379020    -0.6795     15.537   169.0083 3.7993e+02    15.3962     -0.315     -0.456    18.6662   998.5504 0.0000e+00
     -0.291      0.120     2.0452     31.951    218.002 190.420137    -0.3146     15.537   166.7566 3.7510e+02    40.9142     -0.280     -0.406    18.6666   998.5504 0.0000e+00
     -0.268      0.117     2.0502     32.231    217.998 190.421194    -0.1298     15.546   164.3137 3.7907e+02    54.7094     -0.262     -0.380    18.6672   998.5504 0.0000e+00
     -0.248      0.113     2.0566     32.519    217.960 190.391797    -0.1050     15.556   160.1202 3.8664e+02    54.7490     -0.247     -0.357    18.6679   998.5503 0.0000e+00
     -0.222      0.111     2.0661     32.825    217.947 190.384421     0.0713     15.562   155.8898 3.9922e+02    41.5991     -0.221     -0.320    18.6686   998.5503 0.0000e+00
     -0.188      0.111     2.0872     33.039    217.956 190.395962     0.3807     15.559   153.0874 4.0942e+02    17.2885     -0.183     -0.266    18.6695   998.5503 0.0000e+00
     -0.155      0.111     2.1051     33.122    217.960 190.403454     0.5365     15.555   151.1018 4.0827e+02     3.9899     -0.149     -0.216    18.6704   998.5503 0.0000e+00
     -0.125      0.108     2.1211     33.105    217.964 190.411058     0.5427     15.556   150.1223 4.0055e+02     2.7568     -0.122     -0.176    18.6714   998.5502 0.0000e+00
     -0.098      0.099     2.1470     32.987    217.974 190.423955     0.5610     15.559   150.6219 3.9510e+02     2.6541     -0.095     -0.137    18.6722   998.5502 0.0000e+00
     -0.074      0.087     2.1609     32.814    217.977 190.431512     0.5947     15.562   151.1202 3.8962e+02     2.6803     -0.072     -0.105    18.6731   998.5501 0.0000e+00
     -0.053      0.074     2.1640     32.623    217.980 190.438488     0.6072     15.564   150.6417 3.7674e+02     2.6955     -0.051     -0.074    18.6741   998.5500 0.0000e+00
     -0.034      0.063     2.1651     32.405    217.982 190.444363     0.5992     15.565   150.8578 3.5989e+02     2.6655     -0.030     -0.044    18.6750   998.5499 0.0000e+00
     -0.021      0.053     2.1547     32.185    217.970 190.438602     0.6122     15.566   152.8730 3.4357e+02     2.6608     -0.019     -0.028    18.6760   998.5498 0.0000e+00
     -0.013      0.048     2.1427     31.990    217.958 190.432790     0.6399     15.566   153.4977 3.3072e+02     2.6734     -0.013     -0.019    18.6770   998.5497 0.0000e+00
     -0.005      0.045     2.1311     31.810    217.958 190.438031     0.6477     15.566   151.5272 3.2381e+02     2.6458     -0.005     -0.007    18.6781   998.5495 0.0000e+00
