* Sea-Bird SBE19plus  Data File:
* FileName = C:\DATA\092418_fcr_0003.hex
* Software version 2.6.3.104
* Temperature SN = 7809
* Conductivity SN = 7809
* System UpLoad Time = Sep 24 2018 16:48:20
* <ApplicationData>
* <Seaterm232>
* <SoftwareVersion>2.6.3.104</SoftwareVersion>
* <BuildDate>30-Jun-2017</BuildDate>
* </Seaterm232>
* </ApplicationData>
* <InstrumentState>
* <HardwareData DeviceType='SBE19plus' SerialNumber='01907809'>
*
*    <Manufacturer>Sea-Bird Electronics, Inc.</Manufacturer>
*
*    <FirmwareVersion>3.1.8</FirmwareVersion>
*
*    <FirmwareDate>Mar  9 2016 16:22:29</FirmwareDate>
*
*    <CommandSetVersion>1.4</CommandSetVersion>
*
*    <PCBAssembly PCBSerialNum='120721' AssemblyNum='41054J'/>
*
*    <PCBAssembly PCBSerialNum='120715' AssemblyNum='41967A'/>
*
*    <PCBAssembly PCBSerialNum='116699' AssemblyNum='41606'/>
*
*    <PCBAssembly PCBSerialNum='120719' AssemblyNum='41059D'/>
*
*    <MfgDate>28-Apr-2017</MfgDate>
*
*    <InternalSensors>
*
*       <Sensor id='Main Temperature'>
*
*          <type>temperature0</type>
*
*          <SerialNumber>01907809</SerialNumber>
*
*       </Sensor>
*
*       <Sensor id='Main Conductivity'>
*
*          <type>conductivity-0</type>
*
*          <SerialNumber>01907809</SerialNumber>
*
*       </Sensor>
*
*       <Sensor id='Main Pressure'>
*
*          <type>strain-0</type>
*
*          <SerialNumber>10586018</SerialNumber>
*
*       </Sensor>
*
*    </InternalSensors>
*
*    <ExternalSensors>
*
*       <Sensor id='volt 0'>
*
*          <type>pH</type>
*
*          <SerialNumber>27-0363</SerialNumber>
*
*       </Sensor>
*
*       <Sensor id='volt 1'>
*
*          <type>ORP</type>
*
*          <SerialNumber>27-0363</SerialNumber>
*
*       </Sensor>
*
*       <Sensor id='volt 2'>
*
*          <type>OXY</type>
*
*          <SerialNumber>43-0434</SerialNumber>
*
*       </Sensor>
*
*       <Sensor id='volt 3'>
*
*          <type>PAR</type>
*
*          <SerialNumber>1122</SerialNumber>
*
*       </Sensor>
*
*       <Sensor id='volt 4'>
*
*          <type>ECO AFL/FL</type>
*
*          <SerialNumber>FLNTURT-2496</SerialNumber>
*
*       </Sensor>
*
*       <Sensor id='volt 5'>
*
*          <type>ECO-NTU</type>
*
*          <SerialNumber>FLNTURT-2496</SerialNumber>
*
*       </Sensor>
*
*       <Sensor id='serial'>
*
*          <type>not assigned</type>
*
*          <SerialNumber>not assigned</SerialNumber>
*
*       </Sensor>
*
*    </ExternalSensors>
*
* </HardwareData>
* <StatusData DeviceType='SBE19plus' SerialNumber='01907809'>
*
*    <DateTime>2018-09-24T20:47:01</DateTime>
*
*    <LoggingState>not logging</LoggingState>
*
*    <EventSummary numEvents='0'/>
*
*    <Power>
*
*       <vMain>12.8</vMain>
*
*       <vLith>8.5</vLith>
*
*       <iMain>63.2</iMain>
*
*       <iPump>43.8</iPump>
*
*       <iExt01>14.3</iExt01>
*
*       <iExt2345>44.7</iExt2345>
*
*    </Power>
*
*    <MemorySummary>
*
*       <Bytes>110745</Bytes>
*
*       <Samples>4815</Samples>
*
*       <SamplesFree>2855973</SamplesFree>
*
*       <SampleLength>23</SampleLength>
*
*       <Profiles>5</Profiles>
*
*    </MemorySummary>
*
* </StatusData>
* <ConfigurationData DeviceType='SBE19plus' SerialNumber='01907809'>
*
*    <ProfileMode>
*
*       <ScansToAverage>1</ScansToAverage>
*
*       <MinimumCondFreq>5</MinimumCondFreq>
*
*       <PumpDelay>45</PumpDelay>
*
*       <AutoRun>no</AutoRun>
*
*       <IgnoreSwitch>no</IgnoreSwitch>
*
*    </ProfileMode>
*
*    <Battery>
*
*       <Type>alkaline</Type>
*
*       <CutOff>7.5</CutOff>
*
*    </Battery>
*
*    <DataChannels>
*
*       <ExtVolt0>yes</ExtVolt0>
*
*       <ExtVolt1>yes</ExtVolt1>
*
*       <ExtVolt2>yes</ExtVolt2>
*
*       <ExtVolt3>yes</ExtVolt3>
*
*       <ExtVolt4>yes</ExtVolt4>
*
*       <ExtVolt5>yes</ExtVolt5>
*
*       <SBE38>no</SBE38>
*
*       <WETLABS>no</WETLABS>
*
*       <OPTODE>no</OPTODE>
*
*       <SBE63>no</SBE63>
*
*       <SeaFET>no</SeaFET>
*
*       <GTD>no</GTD>
*
*    </DataChannels>
*
*    <EchoCharacters>yes</EchoCharacters>
*
*    <OutputExecutedTag>yes</OutputExecutedTag>
*
*    <OutputFormat>raw HEX</OutputFormat>
*
* </ConfigurationData>
* <CalibrationCoefficients DeviceType='SBE19plus' SerialNumber='01907809'>
*
*    <Calibration format='TEMP1' id='Main Temperature'>
*
*       <SerialNum>01907809</SerialNum>
*
*       <CalDate>09-Mar-18</CalDate>
*
*       <TA0>1.210932e-03</TA0>
*
*       <TA1>2.843566e-04</TA1>
*
*       <TA2>-1.945074e-06</TA2>
*
*       <TA3>2.128067e-07</TA3>
*
*       <TOFFSET>0.000000e+00</TOFFSET>
*
*    </Calibration>
*
*    <Calibration format='WBCOND0' id='Main Conductivity'>
*
*       <SerialNum>01907809</SerialNum>
*
*       <CalDate>09-Mar-18</CalDate>
*
*       <G>-1.006721e+00</G>
*
*       <H>1.269065e-01</H>
*
*       <I>-1.405844e-04</I>
*
*       <J>2.478371e-05</J>
*
*       <CPCOR>-9.570000e-08</CPCOR>
*
*       <CTCOR>3.250000e-06</CTCOR>
*
*       <CSLOPE>1.000000e+00</CSLOPE>
*
*    </Calibration>
*
*    <Calibration format='STRAIN0' id='Main Pressure'>
*
*       <SerialNum>10586018</SerialNum>
*
*       <CalDate>07-Mar-18</CalDate>
*
*       <PA0>-4.081764e-02</PA0>
*
*       <PA1>4.851884e-04</PA1>
*
*       <PA2>-3.511682e-12</PA2>
*
*       <PTCA0>5.252134e+05</PTCA0>
*
*       <PTCA1>1.795324e+00</PTCA1>
*
*       <PTCA2>-2.843535e-01</PTCA2>
*
*       <PTCB0>2.516687e+01</PTCB0>
*
*       <PTCB1>3.750000e-04</PTCB1>
*
*       <PTCB2>0.000000e+00</PTCB2>
*
*       <PTEMPA0>-5.378069e+01</PTEMPA0>
*
*       <PTEMPA1>5.366207e+01</PTEMPA1>
*
*       <PTEMPA2>4.872143e-02</PTEMPA2>
*
*       <POFFSET>5.000000e-01</POFFSET>
*
*       <PRANGE>1.600000e+02</PRANGE>
*
*    </Calibration>
*
*    <Calibration format='VOLT0' id='Volt 0'>
*
*       <OFFSET>-4.920000e-02</OFFSET>
*
*       <SLOPE>1.248122e+00</SLOPE>
*
*    </Calibration>
*
*    <Calibration format='VOLT0' id='Volt 1'>
*
*       <OFFSET>-4.784000e-02</OFFSET>
*
*       <SLOPE>1.248871e+00</SLOPE>
*
*    </Calibration>
*
*    <Calibration format='VOLT0' id='Volt 2'>
*
*       <OFFSET>-4.864632e-02</OFFSET>
*
*       <SLOPE>1.248714e+00</SLOPE>
*
*    </Calibration>
*
*    <Calibration format='VOLT0' id='Volt 3'>
*
*       <OFFSET>-4.743790e-02</OFFSET>
*
*       <SLOPE>1.248571e+00</SLOPE>
*
*    </Calibration>
*
*    <Calibration format='VOLT0' id='Volt 4'>
*
*       <OFFSET>-4.671263e-02</OFFSET>
*
*       <SLOPE>1.248951e+00</SLOPE>
*
*    </Calibration>
*
*    <Calibration format='VOLT0' id='Volt 5'>
*
*       <OFFSET>-4.871053e-02</OFFSET>
*
*       <SLOPE>1.249136e+00</SLOPE>
*
*    </Calibration>
*
*    <Calibration format='FREQ0' id='external frequency channel'>
*
*       <EXTFREQSF>1.000014e+00</EXTFREQSF>
*
*    </Calibration>
*
* </CalibrationCoefficients>
* <EventCounters DeviceType='SBE19plus' SerialNumber='01907809'>
*
*    <EventSummary numEvents='0'/>
*
* </EventCounters></InstrumentState>
* <Headers>
*
* cast   3 24 Sep 2018 14:42:29 samples 1828 to 2545, avg = 1, stop = mag switch
*
# nquan = 17
# nvalues = 636                         
# units = specified
# name 0 = depFM: Depth [fresh water, m]
# name 1 = tv290C: Temperature [ITS-90, deg C]
# name 2 = sbeox0Mg/L: Oxygen, SBE 43 [mg/l]
# name 3 = sbeox0PS: Oxygen, SBE 43 [% saturation]
# name 4 = c0uS/cm: Conductivity [uS/cm]
# name 5 = specc: Specific Conductance [uS/cm]
# name 6 = ph: pH
# name 7 = orp: Oxidation Reduction Potential [mV]
# name 8 = flECO-AFL: Fluorescence, WET Labs ECO-AFL/FL [mg/m^3]
# name 9 = turbWETntu0: Turbidity, WET Labs ECO [NTU]
# name 10 = sal00: Salinity, Practical [PSU]
# name 11 = dz/dtM: Descent Rate [m/s]
# name 12 = prdM: Pressure, Strain Gauge [db]
# name 13 = prdE: Pressure, Strain Gauge [psi]
# name 14 = scan: Scan Count
# name 15 = par/sat/log: PAR/Logarithmic, Satlantic
# name 16 = flag:  0.000e+00
# span 0 =     -0.490,      5.633       
# span 1 =    17.2547,    22.0608       
# span 2 =    -0.7277,     9.1058       
# span 3 =     -7.997,     99.899       
# span 4 =   0.624054,  66.498425       
# span 5 =      0.711,     78.665       
# span 6 =      6.330,      7.834       
# span 7 =   166.1435,   495.8423       
# span 8 =    -0.2224,     5.2770       
# span 9 =    -0.4660,   105.7759       
# span 10 =     0.0094,     0.0403      
# span 11 =     -0.261,      0.240      
# span 12 =     -0.479,      5.523      
# span 13 =     -0.695,      8.011      
# span 14 =          1,        636      
# span 15 = 2.0524e-01, 4.0581e+02      
# span 16 = 0.0000e+00, 0.0000e+00      
# interval = seconds: 0.25
# start_time = Sep 24 2018 14:42:29 [Instrument's time stamp, header]
# bad_flag = -9.990e-29
# <Sensors count="9" >
#   <sensor Channel="1" >
#     <!-- Count, Temperature -->
#     <TemperatureSensor SensorID="58" >
#       <SerialNumber>7809</SerialNumber>
#       <CalibrationDate>09-Mar-18</CalibrationDate>
#       <A0>1.21093245e-003</A0>
#       <A1>2.84356597e-004</A1>
#       <A2>-1.94507398e-006</A2>
#       <A3>2.12806664e-007</A3>
#       <Slope>1.00000000</Slope>
#       <Offset>0.0000</Offset>
#     </TemperatureSensor>
#   </sensor>
#   <sensor Channel="2" >
#     <!-- Frequency 0, Conductivity -->
#     <ConductivitySensor SensorID="3" >
#       <SerialNumber>7809</SerialNumber>
#       <CalibrationDate>09-Mar-18</CalibrationDate>
#       <UseG_J>1</UseG_J>
#       <!-- Cell const and series R are applicable only for wide range sensors. -->
#       <SeriesR>0.0000</SeriesR>
#       <CellConst>2000.0000</CellConst>
#       <ConductivityType>0</ConductivityType>
#       <Coefficients equation="0" >
#         <A>0.00000000e+000</A>
#         <B>0.00000000e+000</B>
#         <C>0.00000000e+000</C>
#         <D>0.00000000e+000</D>
#         <M>0.0</M>
#         <CPcor>-9.57000000e-008</CPcor>
#       </Coefficients>
#       <Coefficients equation="1" >
#         <G>-1.00672082e+000</G>
#         <H>1.26906489e-001</H>
#         <I>-1.40584351e-004</I>
#         <J>2.47837121e-005</J>
#         <CPcor>-9.57000000e-008</CPcor>
#         <CTcor>3.2500e-006</CTcor>
#         <!-- WBOTC not applicable unless ConductivityType = 1. -->
#         <WBOTC>0.00000000e+000</WBOTC>
#       </Coefficients>
#       <Slope>1.00000000</Slope>
#       <Offset>0.00000</Offset>
#     </ConductivitySensor>
#   </sensor>
#   <sensor Channel="3" >
#     <!-- Count, Pressure, Strain Gauge -->
#     <PressureSensor SensorID="46" >
#       <SerialNumber>7809</SerialNumber>
#       <CalibrationDate>07-Mar-18</CalibrationDate>
#       <PA0>-4.08176359e-002</PA0>
#       <PA1>4.85188419e-004</PA1>
#       <PA2>-3.51168169e-012</PA2>
#       <PTEMPA0>-5.37806900e+001</PTEMPA0>
#       <PTEMPA1>5.36620721e+001</PTEMPA1>
#       <PTEMPA2>4.87214332e-002</PTEMPA2>
#       <PTCA0>5.25213435e+005</PTCA0>
#       <PTCA1>1.79532409e+000</PTCA1>
#       <PTCA2>-2.84353509e-001</PTCA2>
#       <PTCB0>2.51668750e+001</PTCB0>
#       <PTCB1>3.75000000e-004</PTCB1>
#       <PTCB2>0.00000000e+000</PTCB2>
#       <Offset>0.000000</Offset>
#     </PressureSensor>
#   </sensor>
#   <sensor Channel="4" >
#     <!-- A/D voltage 0, pH -->
#     <pH_Sensor SensorID="43" >
#       <SerialNumber>0363</SerialNumber>
#       <CalibrationDate>16-Mar-18</CalibrationDate>
#       <Slope>4.6194</Slope>
#       <Offset>2.5947</Offset>
#     </pH_Sensor>
#   </sensor>
#   <sensor Channel="5" >
#     <!-- A/D voltage 1, Oxidation Reduction Potential -->
#     <OxidationReductionPotentialSensor SensorID="41" >
#       <SerialNumber>0363</SerialNumber>
#       <CalibrationDate>16-Mar-18</CalibrationDate>
#       <B>2.499480</B>
#       <M>-0.496195</M>
#       <Offset>0.0</Offset>
#     </OxidationReductionPotentialSensor>
#   </sensor>
#   <sensor Channel="6" >
#     <!-- A/D voltage 2, Oxygen, SBE 43 -->
#     <OxygenSensor SensorID="38" >
#       <SerialNumber>0434</SerialNumber>
#       <CalibrationDate>13-Mar-18</CalibrationDate>
#       <Use2007Equation>1</Use2007Equation>
#       <CalibrationCoefficients equation="0" >
#         <!-- Coefficients for Owens-Millard equation. -->
#         <Boc>0.0000</Boc>
#         <Soc>0.0000e+000</Soc>
#         <offset>0.0000</offset>
#         <Pcor>0.00e+000</Pcor>
#         <Tcor>0.0000</Tcor>
#         <Tau>0.0</Tau>
#       </CalibrationCoefficients>
#       <CalibrationCoefficients equation="1" >
#         <!-- Coefficients for Sea-Bird equation - SBE calibration in 2007 and later. -->
#         <Soc>4.5718e-001</Soc>
#         <offset>-0.6113</offset>
#         <A>-4.0649e-003</A>
#         <B> 2.0945e-004</B>
#         <C>-3.3182e-006</C>
#         <D0> 2.5826e+000</D0>
#         <D1> 1.92634e-004</D1>
#         <D2>-4.64803e-002</D2>
#         <E> 3.6000e-002</E>
#         <Tau20> 1.2200</Tau20>
#         <H1>-3.3000e-002</H1>
#         <H2> 5.0000e+003</H2>
#         <H3> 1.4500e+003</H3>
#       </CalibrationCoefficients>
#     </OxygenSensor>
#   </sensor>
#   <sensor Channel="7" >
#     <!-- A/D voltage 3, PAR/Logarithmic, Satlantic -->
#     <PARLog_SatlanticSensor SensorID="76" >
#       <SerialNumber>1122</SerialNumber>
#       <CalibrationDate>22-Jun-2017</CalibrationDate>
#       <a0>9.6090e-001</a0>
#       <a1>8.0780e-001</a1>
#       <Im>1.3589e+000</Im>
#       <Multiplier>1.0000e+000</Multiplier>
#     </PARLog_SatlanticSensor>
#   </sensor>
#   <sensor Channel="8" >
#     <!-- A/D voltage 4, Fluorometer, WET Labs ECO-AFL/FL -->
#     <FluoroWetlabECO_AFL_FL_Sensor SensorID="20" >
#       <SerialNumber>FLNTURT-2496</SerialNumber>
#       <CalibrationDate>25-Jan-2017</CalibrationDate>
#       <ScaleFactor>5.30000000e+001</ScaleFactor>
#       <!-- Dark output -->
#       <Vblank>0.0560</Vblank>
#     </FluoroWetlabECO_AFL_FL_Sensor>
#   </sensor>
#   <sensor Channel="9" >
#     <!-- A/D voltage 5, Turbidity Meter, WET Labs, ECO-NTU -->
#     <TurbidityMeter SensorID="67" >
#       <SerialNumber>FLNTURT-2496</SerialNumber>
#       <CalibrationDate>25-Jan-2017</CalibrationDate>
#       <ScaleFactor>176.000000</ScaleFactor>
#       <!-- Dark output -->
#       <DarkVoltage>0.072000</DarkVoltage>
#     </TurbidityMeter>
#   </sensor>
# </Sensors>
# datcnv_date = Sep 24 2018 16:53:16, 7.26.7.114 [datcnv_vars = 16]
# datcnv_in = C:\DATA\092418_fcr30.hex C:\DATA\SBE19plusV2_7809.xmlcon
# datcnv_skipover = 0
# datcnv_ox_hysteresis_correction = yes
# datcnv_ox_tau_correction = yes
# filter_date = Sep 24 2018 16:53:35, 7.26.7.114
# filter_in = C:\DATA\092418_fcr30.cnv
# filter_low_pass_tc_A = 0.030
# filter_low_pass_tc_B = 0.150
# filter_low_pass_A_vars = tv290C c0uS/cm par/sat/log
# filter_low_pass_B_vars = prdM prdE
# alignctd_date = Sep 24 2018 16:53:51, 7.26.7.114
# alignctd_in = C:\DATA\092418_fcr30.cnv
# alignctd_adv = tv290C 0.500, sbeox0Mg/L 3.000, sbeox0PS 3.000                                                                                                                                                                      
# file_type = ascii
*END*
     -0.489    18.7024     9.0933     97.439   0.624054      0.711      6.370   465.4430    -0.1779     0.0577     0.0094 -2.105e-16     -0.479     -0.695          1 1.5936e+02 0.0000e+00
     -0.489    18.7037     9.0939     97.446   0.675543      0.774      6.374   439.6622    -0.1860    -0.0497     0.0094 -4.211e-16     -0.479     -0.695          2 1.5181e+02 0.0000e+00
     -0.489    18.7051     9.0945     97.450   0.673671      0.774      6.420   281.8731    -0.2021    -0.0497     0.0094     -0.000     -0.479     -0.695          3 1.3280e+02 0.0000e+00
     -0.489    18.7052     9.0936     97.438   0.685599      0.774      6.416   352.8555    -0.1981    -0.1706     0.0094     -0.000     -0.479     -0.695          4 1.1952e+02 0.0000e+00
     -0.488    18.7025     9.0970     97.472   0.749520      0.870      6.330   495.8423    -0.1698    -0.1974     0.0094     -0.000     -0.479     -0.695          5 1.1544e+02 0.0000e+00
     -0.488    18.7004     9.0972     97.472   0.742157      0.838      6.364   382.8384    -0.1941    -0.1706     0.0094      0.000     -0.479     -0.695          6 1.3478e+02 0.0000e+00
     -0.490    18.7006     9.0986     97.485   0.931619      1.062      6.389   377.0841    -0.1738    -0.2243     0.0094     -0.000     -0.479     -0.695          7 1.3762e+02 0.0000e+00
     -0.489    18.7012     9.1024     97.524   1.194706      1.381      6.386   375.4563    -0.1577    -0.2377     0.0094     -0.000     -0.479     -0.695          8 1.3748e+02 0.0000e+00
     -0.488    18.7008     9.1058     97.559   1.214151      1.381      6.377   413.0107    -0.1779    -0.1974     0.0094      0.000     -0.479     -0.694          9 1.5299e+02 0.0000e+00
     -0.488    18.7005     9.1014     97.510   1.144281      1.317      6.375   399.7985    -0.2021    -0.2914     0.0094      0.000     -0.479     -0.694         10 1.7019e+02 0.0000e+00
     -0.489    18.7002     9.0998     97.491   1.104013      1.253      6.374   415.2821    -0.2183    -0.3452     0.0094      0.000     -0.479     -0.695         11 1.7539e+02 0.0000e+00
     -0.488    18.6999     9.0600     97.494   1.145832      1.317      6.375   415.3200    -0.1738    -0.1974     0.0094      0.000     -0.479     -0.695         12 1.6316e+02 0.0000e+00
     -0.488    18.6988     8.9278     97.630   1.269884      1.445      6.378   416.4935    -0.1860    -0.2512     0.0095      0.000     -0.479     -0.695         13 1.6117e+02 0.0000e+00
     -0.489    18.6980     8.8199     97.682   1.393751      1.604      6.377   421.1500    -0.1698    -0.2243     0.0095      0.000     -0.479     -0.695         14 1.6650e+02 0.0000e+00
     -0.488    18.6960     8.7455     97.677   1.406193      1.604      6.376   422.9671    -0.2021    -0.2512     0.0095      0.000     -0.479     -0.695         15 1.7744e+02 0.0000e+00
     -0.488    18.6961     8.6906     97.758   1.402440      1.604      6.379   422.8536    -0.1658    -0.1974     0.0095      0.000     -0.479     -0.695         16 1.9152e+02 0.0000e+00
     -0.489    18.6927     8.6442     97.828   1.516854      1.732      6.377   438.8672    -0.1698    -0.2109     0.0095     -0.000     -0.479     -0.695         17 2.0014e+02 0.0000e+00
     -0.488    18.6955     8.6248     97.961   1.441455      1.668      6.371   342.4826    -0.2021    -0.2377     0.0095      0.000     -0.479     -0.694         18 1.9799e+02 0.0000e+00
     -0.488    18.6891     8.6228     98.116   1.496271      1.668      6.373   339.5676    -0.1900    -0.1437     0.0095      0.000     -0.479     -0.694         19 2.0528e+02 0.0000e+00
     -0.488    18.6982     8.6559     98.584   1.359811      1.637      6.371   339.1890    -0.1738    -0.2914     0.0095      0.000     -0.479     -0.694         20 2.3153e+02 0.0000e+00
     -0.489    18.6816     8.7414     99.631   1.374414      1.445      6.374   336.6526    -0.2102    -0.2109     0.0095     -0.000     -0.478     -0.693         21 2.5853e+02 0.0000e+00
     -0.488    18.9360     8.7596     99.899   1.152410      1.509      6.377   338.5076    -0.2102    -0.2646     0.0095      0.000     -0.473     -0.685         22 3.0653e+02 0.0000e+00
     -0.472    19.6859     8.6398     98.569   3.471864      3.552      6.472   342.9748    -0.1658    -0.1974     0.0099      0.004     -0.448     -0.650         23 3.4697e+02 0.0000e+00
     -0.409    20.3503     8.3656     95.443  17.917904     20.254      6.889   254.7674    -0.1819    -0.2512     0.0159      0.024     -0.396     -0.574         24 3.7035e+02 0.0000e+00
