* Sea-Bird SBE19plus  Data File:
* FileName = C:\DATA\092719_fcr_0005.hex
* Software version 2.8.0.119 SB_Terminal.dll
* Temperature SN = 7809
* Conductivity SN = 7809
* System UpLoad Time = Sep 28 2019 13:26:10
* <ApplicationData>
* <Seaterm232>
* <SoftwareVersion>2.8.0.119</SoftwareVersion>
* <BuildDate>07-Nov-2018</BuildDate>
* </Seaterm232>
* </ApplicationData>
* cast   5 27 Sep 2019 13:01:37 samples 4572 to 5118, avg = 1, stop = mag switch
# nquan = 16
# nvalues = 482                         
# units = specified
# name 0 = depFM: Depth [fresh water, m]
# name 1 = dz/dtM: Descent Rate [m/s]
# name 2 = sbeox0ML/L: Oxygen, SBE 43 [ml/l]
# name 3 = sbeox0PS: Oxygen, SBE 43 [% saturation]
# name 4 = specc: Specific Conductance [uS/cm]
# name 5 = c0uS/cm: Conductivity [uS/cm]
# name 6 = flECO-AFL: Fluorescence, WET Labs ECO-AFL/FL [mg/m^3]
# name 7 = ph: pH
# name 8 = orp: Oxidation Reduction Potential [mV]
# name 9 = par/sat/log: PAR/Logarithmic, Satlantic
# name 10 = turbWETntu0: Turbidity, WET Labs ECO [NTU]
# name 11 = prdM: Pressure, Strain Gauge [db]
# name 12 = prdE: Pressure, Strain Gauge [psi]
# name 13 = tv290C: Temperature [ITS-90, deg C]
# name 14 = density00: Density [density, kg/m^3]
# name 15 = flag:  0.000e+00
# span 0 =     -0.551,      3.053       
# span 1 =     -0.208,      0.269       
# span 2 =     4.1462,     6.8138       
# span 3 =     69.107,    112.286       
# span 4 =      1.504,     39.752       
# span 5 =   1.448525,  38.200921       
# span 6 =    -1.7704,     4.4687       
# span 7 =      6.385,      8.478       
# span 8 =    23.4391,   148.9447       
# span 9 = 1.4284e+01, 2.1306e+03       
# span 10 =    -0.8317,   893.8638      
# span 11 =     -0.541,      2.994      
# span 12 =     -0.784,      4.343      
# span 13 =    21.2810,    23.1960      
# span 14 =   997.4993,   997.9646      
# span 15 = 0.0000e+00, 0.0000e+00      
# interval = seconds: 0.25
# start_time = Sep 27 2019 13:01:37 [Instrument's time stamp, header]
# bad_flag = -9.990e-29
# <Sensors count="9" >
#   <sensor Channel="1" >
#     <!-- Count, Temperature -->
#     <TemperatureSensor SensorID="58" >
#       <SerialNumber>7809</SerialNumber>
#       <CalibrationDate>24-Mar-19</CalibrationDate>
#       <A0>1.21792325e-003</A0>
#       <A1>2.81669265e-004</A1>
#       <A2>-1.60333336e-006</A2>
#       <A3>1.98414625e-007</A3>
#       <Slope>1.00000000</Slope>
#       <Offset>0.0000</Offset>
#     </TemperatureSensor>
#   </sensor>
#   <sensor Channel="2" >
#     <!-- Frequency 0, Conductivity -->
#     <ConductivitySensor SensorID="3" >
#       <SerialNumber>7809</SerialNumber>
#       <CalibrationDate>24-Mar-19</CalibrationDate>
#       <UseG_J>1</UseG_J>
#       <!-- Cell const and series R are applicable only for wide range sensors. -->
#       <SeriesR>0.0000</SeriesR>
#       <CellConst>2000.0000</CellConst>
#       <ConductivityType>0</ConductivityType>
#       <Coefficients equation="0" >
#         <A>0.00000000e+000</A>
#         <B>0.00000000e+000</B>
#         <C>0.00000000e+000</C>
#         <D>0.00000000e+000</D>
#         <M>0.0</M>
#         <CPcor>-9.57000000e-008</CPcor>
#       </Coefficients>
#       <Coefficients equation="1" >
#         <G>-1.00589325e+000</G>
#         <H>1.26816302e-001</H>
#         <I>-1.51560448e-004</I>
#         <J>2.67137274e-005</J>
#         <CPcor>-9.57000000e-008</CPcor>
#         <CTcor>3.2500e-006</CTcor>
#         <!-- WBOTC not applicable unless ConductivityType = 1. -->
#         <WBOTC>0.00000000e+000</WBOTC>
#       </Coefficients>
#       <Slope>1.00000000</Slope>
#       <Offset>0.00000</Offset>
#     </ConductivitySensor>
#   </sensor>
#   <sensor Channel="3" >
#     <!-- Count, Pressure, Strain Gauge -->
#     <PressureSensor SensorID="46" >
#       <SerialNumber>7809</SerialNumber>
#       <CalibrationDate>11-Mar-19</CalibrationDate>
#       <PA0>4.56561833e-002</PA0>
#       <PA1>4.85095118e-004</PA1>
#       <PA2>-2.88327090e-012</PA2>
#       <PTEMPA0>-5.48784562e+001</PTEMPA0>
#       <PTEMPA1>5.53756816e+001</PTEMPA1>
#       <PTEMPA2>-5.86727098e-001</PTEMPA2>
#       <PTCA0>5.25246745e+005</PTCA0>
#       <PTCA1>1.22304214e+001</PTCA1>
#       <PTCA2>-3.56745036e-001</PTCA2>
#       <PTCB0>2.51668750e+001</PTCB0>
#       <PTCB1>3.75000000e-004</PTCB1>
#       <PTCB2>0.00000000e+000</PTCB2>
#       <Offset>0.000000</Offset>
#     </PressureSensor>
#   </sensor>
#   <sensor Channel="4" >
#     <!-- A/D voltage 0, Oxygen, SBE 43 -->
#     <OxygenSensor SensorID="38" >
#       <SerialNumber>0434</SerialNumber>
#       <CalibrationDate>13-Apr-19</CalibrationDate>
#       <Use2007Equation>1</Use2007Equation>
#       <CalibrationCoefficients equation="0" >
#         <!-- Coefficients for Owens-Millard equation. -->
#         <Boc>0.0000</Boc>
#         <Soc>0.0000e+000</Soc>
#         <offset>0.0000</offset>
#         <Pcor>0.00e+000</Pcor>
#         <Tcor>0.0000</Tcor>
#         <Tau>0.0</Tau>
#       </CalibrationCoefficients>
#       <CalibrationCoefficients equation="1" >
#         <!-- Coefficients for Sea-Bird equation - SBE calibration in 2007 and later. -->
#         <Soc>4.2007e-001</Soc>
#         <offset>-0.6109</offset>
#         <A>-4.3656e-003</A>
#         <B> 1.7017e-004</B>
#         <C>-2.5341e-006</C>
#         <D0> 2.5826e+000</D0>
#         <D1> 1.92634e-004</D1>
#         <D2>-4.64803e-002</D2>
#         <E> 3.6000e-002</E>
#         <Tau20> 1.1800</Tau20>
#         <H1>-3.3000e-002</H1>
#         <H2> 5.0000e+003</H2>
#         <H3> 1.4500e+003</H3>
#       </CalibrationCoefficients>
#     </OxygenSensor>
#   </sensor>
#   <sensor Channel="5" >
#     <!-- A/D voltage 1, PAR/Logarithmic, Satlantic -->
#     <PARLog_SatlanticSensor SensorID="76" >
#       <SerialNumber>1122</SerialNumber>
#       <CalibrationDate>08-May-2019</CalibrationDate>
#       <a0>9.7456e-001</a0>
#       <a1>8.1640e-001</a1>
#       <Im>1.3589e+000</Im>
#       <Multiplier>1.0000e+000</Multiplier>
#     </PARLog_SatlanticSensor>
#   </sensor>
#   <sensor Channel="6" >
#     <!-- A/D voltage 2, pH -->
#     <pH_Sensor SensorID="43" >
#       <SerialNumber>0363</SerialNumber>
#       <CalibrationDate>15-Apr-19</CalibrationDate>
#       <Slope>4.5952</Slope>
#       <Offset>2.5370</Offset>
#     </pH_Sensor>
#   </sensor>
#   <sensor Channel="7" >
#     <!-- A/D voltage 3, Oxidation Reduction Potential -->
#     <OxidationReductionPotentialSensor SensorID="41" >
#       <SerialNumber>0363</SerialNumber>
#       <CalibrationDate>15-Apr-19</CalibrationDate>
#       <B>2.499480</B>
#       <M>-0.496195</M>
#       <Offset>0.0</Offset>
#     </OxidationReductionPotentialSensor>
#   </sensor>
#   <sensor Channel="8" >
#     <!-- A/D voltage 4, Fluorometer, WET Labs ECO-AFL/FL -->
#     <FluoroWetlabECO_AFL_FL_Sensor SensorID="20" >
#       <SerialNumber>FLNTURT-2496</SerialNumber>
#       <CalibrationDate>08-May-2019</CalibrationDate>
#       <ScaleFactor>5.00000000e+001</ScaleFactor>
#       <!-- Dark output -->
#       <Vblank>0.0550</Vblank>
#     </FluoroWetlabECO_AFL_FL_Sensor>
#   </sensor>
#   <sensor Channel="9" >
#     <!-- A/D voltage 5, Turbidity Meter, WET Labs, ECO-NTU -->
#     <TurbidityMeter SensorID="67" >
#       <SerialNumber>FLNTURT-2496</SerialNumber>
#       <CalibrationDate>08-May-2019</CalibrationDate>
#       <ScaleFactor>189.000000</ScaleFactor>
#       <!-- Dark output -->
#       <DarkVoltage>0.071000</DarkVoltage>
#     </TurbidityMeter>
#   </sensor>
# </Sensors>
# datcnv_date = Sep 28 2019 13:33:40, 7.26.7.129 [datcnv_vars = 15]
# datcnv_in = C:\DATA\092719_fcr_20.hex C:\DATA\SBE19plusV2_7809.xmlcon
# datcnv_skipover = 0
# datcnv_ox_hysteresis_correction = yes
# datcnv_ox_tau_correction = yes
# filter_date = Sep 28 2019 13:35:46, 7.26.7.129
# filter_in = C:\DATA\092719_fcr_20.cnv
# filter_low_pass_tc_A = 0.030
# filter_low_pass_tc_B = 0.150
# filter_low_pass_A_vars = sbeox0ML/L prdM prdE tv290C density00
# filter_low_pass_B_vars = depFM dz/dtM sbeox0PS specc c0uS/cm flECO-AFL ph orp par/sat/log turbWETntu0
# alignctd_date = Sep 28 2019 13:36:15, 7.26.7.129
# alignctd_in = C:\DATA\092719_fcr_20.cnv
# alignctd_adv = dz/dtM 1.000, sbeox0PS 1.000, specc 1.000, c0uS/cm 1.000, flECO-AFL 1.000, ph 1.000, orp 1.000, turbWETntu0 1.000                                                                                                   
# file_type = ascii
*END*
     -0.549     -0.001     5.7700     96.519      1.605   1.546306    -0.0800      6.465    23.4391 2.2891e+02    -0.2724     -0.539     -0.782    23.1960   997.4993 0.0000e+00
     -0.550     -0.001     5.7718     96.528      1.564   1.506486    -0.0809      6.415    73.7452 2.0777e+02    -0.2700     -0.540     -0.783    23.1818   997.5027 0.0000e+00
     -0.550     -0.001     5.7762     96.548      1.504   1.448525    -0.0932      6.385    94.9866 1.8368e+02    -0.3172     -0.539     -0.782    23.1677   997.5060 0.0000e+00
     -0.550     -0.001     5.7759     96.549      1.536   1.479124    -0.0979      6.390    96.0564 1.8245e+02    -0.3844     -0.540     -0.783    23.1614   997.5076 0.0000e+00
     -0.551     -0.001     5.7754     96.507      1.685   1.623017    -0.0774      6.406    93.4775 2.4085e+02    -0.4272     -0.540     -0.784    23.1555   997.5090 0.0000e+00
     -0.551      0.000     5.7772     96.487      1.929   1.857721    -0.0712      6.421    92.5424 7.1082e+02    -0.4738     -0.540     -0.784    23.1478   997.5108 0.0000e+00
     -0.551      0.000     5.7788     96.519      2.245   2.162571    -0.0917      6.428    95.5909 1.5844e+03    -0.5222     -0.540     -0.783    23.1442   997.5116 0.0000e+00
     -0.551      0.000     5.7811     96.554      2.617   2.520940    -0.1347      6.437    95.4045 2.0924e+03    -0.6847     -0.540     -0.783    23.1456   997.5114 0.0000e+00
     -0.551      0.003     5.7752     96.569      3.796   3.656155    -0.1928      6.479    85.3850 2.1306e+03    -0.8317     -0.541     -0.784    23.1475   997.5109 0.0000e+00
     -0.551      0.013     5.7728     96.564     10.904  10.502150    -0.2305      6.664    75.1112 2.1170e+03     0.8783     -0.540     -0.784    23.1494   997.5106 0.0000e+00
     -0.551      0.038     5.7771     96.559     24.840  23.921681    -0.2693      7.069    80.0247 2.0357e+03    21.5968     -0.540     -0.784    23.1517   997.5099 0.0000e+00
     -0.550      0.081     5.7785     96.573     35.450  34.134160    -0.6535      7.558    96.6126 1.5616e+03   249.6086     -0.540     -0.783    23.1536   997.5097 0.0000e+00
     -0.543      0.131     5.7796     96.583     38.695  37.247934    -1.3735      7.942   109.4457 8.3276e+02   667.5041     -0.540     -0.783    23.1557   997.5088 0.0000e+00
     -0.510      0.179     5.7788     96.581     39.389  37.899070    -1.7704      8.170   108.6245 5.5752e+02   893.6793     -0.517     -0.751    23.1570   997.5096 0.0000e+00
     -0.439      0.219     5.7777     96.612     39.723  38.198389    -1.7497      8.300    93.9107 7.4655e+02   893.8638     -0.440     -0.638    23.1514   997.5173 0.0000e+00
     -0.348      0.249     5.7806     96.741     39.748  38.200921    -1.0191      8.391    78.6695 9.0027e+02   670.1600     -0.336     -0.487    23.1402   997.5239 0.0000e+00
     -0.267      0.269     5.7831     97.030     39.682  38.120089     0.3434      8.449    73.8810 8.9924e+02   256.8240     -0.252     -0.366    23.1283   997.5270 0.0000e+00
     -0.207      0.268     5.7839     97.489     39.686  38.109717     1.0959      8.473    75.1610 9.0192e+02    31.2905     -0.200     -0.289    23.1061   997.5328 0.0000e+00
     -0.152      0.246     5.7881     98.049     39.728  38.138964     1.1858      8.478    76.8518 8.8484e+02    10.7240     -0.157     -0.227    23.0743   997.5406 0.0000e+00
     -0.084      0.214     5.7971     98.628     39.752  38.156304     1.3872      8.471    78.2349 6.6249e+02     8.1889     -0.086     -0.125    23.0469   997.5474 0.0000e+00
     -0.013      0.184     5.8165     99.165     39.726  38.128938     1.7456      8.459    79.3225 5.2095e+02     6.8001     -0.001     -0.001    23.0253   997.5529 0.0000e+00
      0.034      0.157     5.8478     99.597     39.656  38.061989     1.9476      8.442    80.5376 5.5407e+02     6.1236      0.043      0.062    23.0067   997.5575 0.0000e+00
      0.058      0.127     5.8855     99.878     39.572  37.981604     1.9732      8.418    82.1717 4.3986e+02     6.0716      0.057      0.083    22.9914   997.5612 0.0000e+00
      0.075      0.093     5.9211     99.851     39.445  37.855258     1.9686      8.392    85.0553 4.2012e+02     6.0731      0.073      0.106    22.9850   997.5629 0.0000e+00
      0.093      0.062     5.9560     99.365     39.274  37.676921     1.9445      8.369    90.9680 7.0667e+02     6.0101      0.090      0.129    22.9843   997.5631 0.0000e+00
      0.112      0.040     5.9815     98.606     39.155  37.539189     1.9164      8.349   104.6199 9.5344e+02     5.9327      0.113      0.164    22.9842   997.5632 0.0000e+00
      0.122      0.027     6.0008     97.752     39.102  37.459427     1.9055      8.329   122.1779 9.6264e+02     5.8907      0.125      0.181    22.9859   997.5627 0.0000e+00
      0.122      0.020     6.0079     96.657     39.082  37.410710     1.9081      8.308   130.1505 9.0924e+02     5.8311      0.121      0.175    22.9836   997.5633 0.0000e+00
      0.116      0.015     5.9724     95.244     39.092  37.394445     1.9393      8.289   122.6344 8.5729e+02     5.8013      0.113      0.163    22.9665   997.5673 0.0000e+00
      0.114      0.014     5.9239     93.675     39.108  37.389682     1.9968      8.274   106.8434 8.4818e+02     5.8260      0.108      0.156    22.9327   997.5751 0.0000e+00
      0.119      0.018     5.8848     92.169     39.152  37.416559     2.0305      8.262    97.1902 7.8160e+02     5.8676      0.115      0.167    22.8934   997.5844 0.0000e+00
      0.129      0.026     5.8254     91.006     39.216  37.465492     2.0352      8.251    95.3995 5.3397e+02     5.8777      0.128      0.186    22.8552   997.5935 0.0000e+00
      0.139      0.032     5.7380     90.362     39.233  37.473511     2.0273      8.237    95.0010 3.8304e+02     5.8501      0.136      0.199    22.8205   997.6018 0.0000e+00
      0.147      0.032     5.6437     90.123     39.216  37.450033     2.0136      8.217    94.8673 5.8955e+02     5.8283      0.143      0.208    22.7951   997.6077 0.0000e+00
      0.157      0.024     5.5475     90.042     39.205  37.435516     2.0163      8.195    94.9011 9.6872e+02     5.8438      0.154      0.223    22.7758   997.6123 0.0000e+00
      0.167      0.010     5.4734     89.934     39.197  37.424936     2.0339      8.175    95.2381 1.1631e+03     5.8736      0.164      0.238    22.7611   997.6159 0.0000e+00
      0.173     -0.008     5.4399     89.687     39.158  37.385575     2.0186      8.157    95.8444 1.2901e+03     5.8613      0.172      0.249    22.7505   997.6183 0.0000e+00
      0.171     -0.028     5.4328     89.238     39.113  37.340452     1.9791      8.142    96.4673 1.4641e+03     5.8259      0.172      0.249    22.7418   997.6204 0.0000e+00
      0.159     -0.047     5.4318     88.539     39.097  37.323685     1.9636      8.125    97.0907 1.5273e+03     5.8055      0.158      0.230    22.7369   997.6214 0.0000e+00
      0.139     -0.061     5.4279     87.549     39.084  37.309787     1.9610      8.105    97.7027 1.4813e+03     5.8122      0.137      0.200    22.7341   997.6220 0.0000e+00
      0.115     -0.067     5.4148     86.333     39.074  37.299366     1.9042      8.081    98.1032 1.2421e+03     5.8082      0.113      0.162    22.7312   997.6225 0.0000e+00
      0.092     -0.065     5.3878     84.999     39.101  37.324638     1.7887      8.056    98.2328 7.2311e+02     5.7896      0.087      0.127    22.7289   997.6229 0.0000e+00
      0.072     -0.057     5.3487     83.636     39.139  37.361453     1.7175      8.037    98.4088 3.7795e+02     5.8170      0.068      0.099    22.7269   997.6233 0.0000e+00
      0.060     -0.045     5.2865     82.301     39.141  37.363638     1.7111      8.025    98.9418 5.7740e+02     5.8771      0.056      0.081    22.7251   997.6238 0.0000e+00
      0.054     -0.030     5.2109     81.081     39.128  37.351057     1.7197      8.015    99.7726 9.3775e+02     5.9269      0.052      0.076    22.7227   997.6243 0.0000e+00
      0.051     -0.015     5.1290     80.224     39.112  37.336283     1.7266      8.000   100.5379 1.0344e+03     5.9270      0.052      0.075    22.7217   997.6245 0.0000e+00
      0.046     -0.005     5.0445     79.897     39.082  37.311954     1.7248      7.983   100.7959 1.0648e+03     5.8785      0.043      0.063    22.7244   997.6239 0.0000e+00
      0.045     -0.001     4.9648     79.956     39.075  37.310799     1.7150      7.968   100.8267 1.2278e+03     5.8320      0.040      0.058    22.7246   997.6238 0.0000e+00
      0.052     -0.001     4.8840     80.180     39.083  37.322338     1.7124      7.953   100.9969 1.3863e+03     5.8574      0.051      0.074    22.7226   997.6243 0.0000e+00
      0.058     -0.003     4.8260     80.472     39.082  37.324521     1.7277      7.936   101.2194 1.4040e+03     5.8903      0.062      0.089    22.7236   997.6241 0.0000e+00
      0.057     -0.006     4.8120     80.849     39.091  37.337206     1.7354      7.920   101.4510 1.0757e+03     5.8359      0.059      0.086    22.7293   997.6227 0.0000e+00
      0.049     -0.007     4.8199     81.364     39.101  37.348756     1.7187      7.905   101.6470 5.0599e+02     5.7897      0.046      0.068    22.7374   997.6208 0.0000e+00
      0.042     -0.004     4.8348     82.047     39.086  37.337231     1.6993      7.890   101.8684 1.9405e+02     5.8236      0.039      0.057    22.7426   997.6195 0.0000e+00
      0.038      0.006     4.8513     82.889     39.071  37.324806     1.6753      7.876   102.2344 1.6326e+02     5.9179      0.037      0.053    22.7457   997.6188 0.0000e+00
      0.037      0.022     4.8722     83.849     39.069  37.325483     1.6271      7.861   102.5454 1.5392e+02     6.0119      0.033      0.048    22.7503   997.6177 0.0000e+00
      0.045      0.037     4.9023     84.911     39.085  37.345418     1.5934      7.845   102.6175 1.4944e+02     6.0427      0.040      0.059    22.7546   997.6167 0.0000e+00
      0.061      0.046     4.9429     86.006     39.112  37.375424     1.5974      7.828   102.7615 1.5441e+02     6.0278      0.058      0.084    22.7567   997.6163 0.0000e+00
      0.082      0.047     4.9956     86.946     39.106  37.370910     1.6318      7.813   103.0815 1.5831e+02     5.9954      0.079      0.115    22.7592   997.6158 0.0000e+00
      0.103      0.041     5.0526     87.575     39.089  37.354323     1.6886      7.800   103.2184 1.8122e+02     5.9466      0.105      0.151    22.7623   997.6152 0.0000e+00
      0.116      0.031     5.1167     87.902     39.100  37.365291     1.7210      7.788   103.2110 3.4692e+02     5.8967      0.118      0.172    22.7686   997.6138 0.0000e+00
      0.117      0.019     5.1872     88.031     39.111  37.376581     1.7203      7.770   103.3364 6.1520e+02     5.8187      0.117      0.170    22.7761   997.6121 0.0000e+00
      0.113      0.010     5.2477     87.989     39.096  37.363873     1.7315      7.751   103.5308 1.0594e+03     5.7569      0.111      0.160    22.7774   997.6117 0.0000e+00
      0.108      0.007     5.2853     87.704     39.070  37.338588     1.7701      7.739   103.7541 1.3891e+03     5.8040      0.103      0.149    22.7762   997.6119 0.0000e+00
