* Sea-Bird SBE19plus  Data File:
* FileName = C:\DATA\092719_fcr_0003.hex
* Software version 2.8.0.119 SB_Terminal.dll
* Temperature SN = 7809
* Conductivity SN = 7809
* System UpLoad Time = Sep 28 2019 13:25:39
* <ApplicationData>
* <Seaterm232>
* <SoftwareVersion>2.8.0.119</SoftwareVersion>
* <BuildDate>07-Nov-2018</BuildDate>
* </Seaterm232>
* </ApplicationData>
* cast   3 27 Sep 2019 11:19:24 samples 2674 to 4097, avg = 1, stop = mag switch
# nquan = 16
# nvalues = 910                         
# units = specified
# name 0 = depFM: Depth [fresh water, m]
# name 1 = dz/dtM: Descent Rate [m/s]
# name 2 = sbeox0ML/L: Oxygen, SBE 43 [ml/l]
# name 3 = sbeox0PS: Oxygen, SBE 43 [% saturation]
# name 4 = specc: Specific Conductance [uS/cm]
# name 5 = c0uS/cm: Conductivity [uS/cm]
# name 6 = flECO-AFL: Fluorescence, WET Labs ECO-AFL/FL [mg/m^3]
# name 7 = ph: pH
# name 8 = orp: Oxidation Reduction Potential [mV]
# name 9 = par/sat/log: PAR/Logarithmic, Satlantic
# name 10 = turbWETntu0: Turbidity, WET Labs ECO [NTU]
# name 11 = prdM: Pressure, Strain Gauge [db]
# name 12 = prdE: Pressure, Strain Gauge [psi]
# name 13 = tv290C: Temperature [ITS-90, deg C]
# name 14 = density00: Density [density, kg/m^3]
# name 15 = flag:  0.000e+00
# span 0 =     -0.547,      9.622       
# span 1 =     -0.280,      0.131       
# span 2 =     0.0666,     6.2643       
# span 3 =      0.969,    102.531       
# span 4 =      0.612,    143.749       
# span 5 =   0.605811, 108.742680       
# span 6 =    -0.4562,    13.3140       
# span 7 =     -2.349,      8.110       
# span 8 = -1234.6939,  1228.2263       
# span 9 = 1.2347e-01, 1.1676e+03       
# span 10 =    -3.2227,    64.0445      
# span 11 =     -0.537,      9.436      
# span 12 =     -0.778,     13.686      
# span 13 =    12.7485,    24.5449      
# span 14 =   997.1686,   999.5026      
# span 15 = 0.0000e+00, 0.0000e+00      
# interval = seconds: 0.25
# start_time = Sep 27 2019 11:19:24 [Instrument's time stamp, header]
# bad_flag = -9.990e-29
# <Sensors count="9" >
#   <sensor Channel="1" >
#     <!-- Count, Temperature -->
#     <TemperatureSensor SensorID="58" >
#       <SerialNumber>7809</SerialNumber>
#       <CalibrationDate>24-Mar-19</CalibrationDate>
#       <A0>1.21792325e-003</A0>
#       <A1>2.81669265e-004</A1>
#       <A2>-1.60333336e-006</A2>
#       <A3>1.98414625e-007</A3>
#       <Slope>1.00000000</Slope>
#       <Offset>0.0000</Offset>
#     </TemperatureSensor>
#   </sensor>
#   <sensor Channel="2" >
#     <!-- Frequency 0, Conductivity -->
#     <ConductivitySensor SensorID="3" >
#       <SerialNumber>7809</SerialNumber>
#       <CalibrationDate>24-Mar-19</CalibrationDate>
#       <UseG_J>1</UseG_J>
#       <!-- Cell const and series R are applicable only for wide range sensors. -->
#       <SeriesR>0.0000</SeriesR>
#       <CellConst>2000.0000</CellConst>
#       <ConductivityType>0</ConductivityType>
#       <Coefficients equation="0" >
#         <A>0.00000000e+000</A>
#         <B>0.00000000e+000</B>
#         <C>0.00000000e+000</C>
#         <D>0.00000000e+000</D>
#         <M>0.0</M>
#         <CPcor>-9.57000000e-008</CPcor>
#       </Coefficients>
#       <Coefficients equation="1" >
#         <G>-1.00589325e+000</G>
#         <H>1.26816302e-001</H>
#         <I>-1.51560448e-004</I>
#         <J>2.67137274e-005</J>
#         <CPcor>-9.57000000e-008</CPcor>
#         <CTcor>3.2500e-006</CTcor>
#         <!-- WBOTC not applicable unless ConductivityType = 1. -->
#         <WBOTC>0.00000000e+000</WBOTC>
#       </Coefficients>
#       <Slope>1.00000000</Slope>
#       <Offset>0.00000</Offset>
#     </ConductivitySensor>
#   </sensor>
#   <sensor Channel="3" >
#     <!-- Count, Pressure, Strain Gauge -->
#     <PressureSensor SensorID="46" >
#       <SerialNumber>7809</SerialNumber>
#       <CalibrationDate>11-Mar-19</CalibrationDate>
#       <PA0>4.56561833e-002</PA0>
#       <PA1>4.85095118e-004</PA1>
#       <PA2>-2.88327090e-012</PA2>
#       <PTEMPA0>-5.48784562e+001</PTEMPA0>
#       <PTEMPA1>5.53756816e+001</PTEMPA1>
#       <PTEMPA2>-5.86727098e-001</PTEMPA2>
#       <PTCA0>5.25246745e+005</PTCA0>
#       <PTCA1>1.22304214e+001</PTCA1>
#       <PTCA2>-3.56745036e-001</PTCA2>
#       <PTCB0>2.51668750e+001</PTCB0>
#       <PTCB1>3.75000000e-004</PTCB1>
#       <PTCB2>0.00000000e+000</PTCB2>
#       <Offset>0.000000</Offset>
#     </PressureSensor>
#   </sensor>
#   <sensor Channel="4" >
#     <!-- A/D voltage 0, Oxygen, SBE 43 -->
#     <OxygenSensor SensorID="38" >
#       <SerialNumber>0434</SerialNumber>
#       <CalibrationDate>13-Apr-19</CalibrationDate>
#       <Use2007Equation>1</Use2007Equation>
#       <CalibrationCoefficients equation="0" >
#         <!-- Coefficients for Owens-Millard equation. -->
#         <Boc>0.0000</Boc>
#         <Soc>0.0000e+000</Soc>
#         <offset>0.0000</offset>
#         <Pcor>0.00e+000</Pcor>
#         <Tcor>0.0000</Tcor>
#         <Tau>0.0</Tau>
#       </CalibrationCoefficients>
#       <CalibrationCoefficients equation="1" >
#         <!-- Coefficients for Sea-Bird equation - SBE calibration in 2007 and later. -->
#         <Soc>4.2007e-001</Soc>
#         <offset>-0.6109</offset>
#         <A>-4.3656e-003</A>
#         <B> 1.7017e-004</B>
#         <C>-2.5341e-006</C>
#         <D0> 2.5826e+000</D0>
#         <D1> 1.92634e-004</D1>
#         <D2>-4.64803e-002</D2>
#         <E> 3.6000e-002</E>
#         <Tau20> 1.1800</Tau20>
#         <H1>-3.3000e-002</H1>
#         <H2> 5.0000e+003</H2>
#         <H3> 1.4500e+003</H3>
#       </CalibrationCoefficients>
#     </OxygenSensor>
#   </sensor>
#   <sensor Channel="5" >
#     <!-- A/D voltage 1, PAR/Logarithmic, Satlantic -->
#     <PARLog_SatlanticSensor SensorID="76" >
#       <SerialNumber>1122</SerialNumber>
#       <CalibrationDate>08-May-2019</CalibrationDate>
#       <a0>9.7456e-001</a0>
#       <a1>8.1640e-001</a1>
#       <Im>1.3589e+000</Im>
#       <Multiplier>1.0000e+000</Multiplier>
#     </PARLog_SatlanticSensor>
#   </sensor>
#   <sensor Channel="6" >
#     <!-- A/D voltage 2, pH -->
#     <pH_Sensor SensorID="43" >
#       <SerialNumber>0363</SerialNumber>
#       <CalibrationDate>15-Apr-19</CalibrationDate>
#       <Slope>4.5952</Slope>
#       <Offset>2.5370</Offset>
#     </pH_Sensor>
#   </sensor>
#   <sensor Channel="7" >
#     <!-- A/D voltage 3, Oxidation Reduction Potential -->
#     <OxidationReductionPotentialSensor SensorID="41" >
#       <SerialNumber>0363</SerialNumber>
#       <CalibrationDate>15-Apr-19</CalibrationDate>
#       <B>2.499480</B>
#       <M>-0.496195</M>
#       <Offset>0.0</Offset>
#     </OxidationReductionPotentialSensor>
#   </sensor>
#   <sensor Channel="8" >
#     <!-- A/D voltage 4, Fluorometer, WET Labs ECO-AFL/FL -->
#     <FluoroWetlabECO_AFL_FL_Sensor SensorID="20" >
#       <SerialNumber>FLNTURT-2496</SerialNumber>
#       <CalibrationDate>08-May-2019</CalibrationDate>
#       <ScaleFactor>5.00000000e+001</ScaleFactor>
#       <!-- Dark output -->
#       <Vblank>0.0550</Vblank>
#     </FluoroWetlabECO_AFL_FL_Sensor>
#   </sensor>
#   <sensor Channel="9" >
#     <!-- A/D voltage 5, Turbidity Meter, WET Labs, ECO-NTU -->
#     <TurbidityMeter SensorID="67" >
#       <SerialNumber>FLNTURT-2496</SerialNumber>
#       <CalibrationDate>08-May-2019</CalibrationDate>
#       <ScaleFactor>189.000000</ScaleFactor>
#       <!-- Dark output -->
#       <DarkVoltage>0.071000</DarkVoltage>
#     </TurbidityMeter>
#   </sensor>
# </Sensors>
# datcnv_date = Sep 28 2019 13:33:41, 7.26.7.129 [datcnv_vars = 15]
# datcnv_in = C:\DATA\092719_fcr_50.hex C:\DATA\SBE19plusV2_7809.xmlcon
# datcnv_skipover = 0
# datcnv_ox_hysteresis_correction = yes
# datcnv_ox_tau_correction = yes
# filter_date = Sep 28 2019 13:35:47, 7.26.7.129
# filter_in = C:\DATA\092719_fcr_50.cnv
# filter_low_pass_tc_A = 0.030
# filter_low_pass_tc_B = 0.150
# filter_low_pass_A_vars = sbeox0ML/L prdM prdE tv290C density00
# filter_low_pass_B_vars = depFM dz/dtM sbeox0PS specc c0uS/cm flECO-AFL ph orp par/sat/log turbWETntu0
# alignctd_date = Sep 28 2019 13:36:15, 7.26.7.129
# alignctd_in = C:\DATA\092719_fcr_50.cnv
# alignctd_adv = dz/dtM 1.000, sbeox0PS 1.000, specc 1.000, c0uS/cm 1.000, flECO-AFL 1.000, ph 1.000, orp 1.000, turbWETntu0 1.000                                                                                                   
# file_type = ascii
*END*
     -0.547 -4.313e-20     5.6303     96.588      0.639   0.633459    -0.1062      5.158 -1234.6939 1.1676e+03    -0.2615     -0.536     -0.778    24.5449   997.1686 0.0000e+00
     -0.547 -3.921e-21     5.6305     96.579      0.636   0.630579    -0.1087      2.856 -1174.1784 5.2076e+02    -0.2810     -0.536     -0.778    24.5447   997.1686 0.0000e+00
     -0.547 -3.565e-22     5.6319     96.591      0.636   0.630224    -0.1147     -0.098 -1115.5139 1.5553e+02    -0.2531     -0.536     -0.778    24.5446   997.1686 0.0000e+00
     -0.547 -3.241e-23     5.6337     96.590      0.635   0.629163    -0.1184     -1.861 -1132.3935 1.0823e+02    -0.3175     -0.536     -0.778    24.5445   997.1686 0.0000e+00
     -0.547 -2.946e-24     5.6314     96.573      0.624   0.617745    -0.1101     -2.303 -1114.0415 9.6051e+01    -0.4376     -0.536     -0.778    24.5443   997.1687 0.0000e+00
     -0.547 -2.678e-25     5.6302     96.568      0.625   0.618891    -0.1010     -2.343  -629.3947 9.8946e+01    -0.4600     -0.536     -0.778    24.5444   997.1687 0.0000e+00
     -0.547 -2.435e-26     5.6326     96.579      0.649   0.643020    -0.1039     -2.347   292.0192 1.2109e+02    -0.4561     -0.536     -0.778    24.5445   997.1687 0.0000e+00
     -0.547 -2.213e-27     5.6324     96.588      0.662   0.656055    -0.1187     -2.347   810.6007 1.7381e+02    -0.4235     -0.536     -0.778    24.5441   997.1688 0.0000e+00
     -0.547 -2.012e-28     5.6306     96.576      0.656   0.649773    -0.1239     -2.347   857.8922 2.1598e+02    -0.3281     -0.536     -0.777    24.5421   997.1693 0.0000e+00
     -0.547 -1.813e-29     5.6309     96.570      0.636   0.630417    -0.1149     -2.347   862.1820 2.1278e+02    -0.2865     -0.536     -0.778    24.5378   997.1703 0.0000e+00
     -0.547 1.4831e-31     5.6322     96.581      0.618   0.612100    -0.1053     -2.348   862.6404 4.5388e+02    -0.2809     -0.536     -0.778    24.5324   997.1717 0.0000e+00
     -0.547 1.9773e-29     5.6343     96.590      0.624   0.618384    -0.0945     -2.348   862.6612 7.1998e+02    -0.3259     -0.536     -0.778    24.5280   997.1728 0.0000e+00
     -0.547 2.1916e-28     5.6329     96.608      0.649   0.643042    -0.0882     -2.348   862.6054 4.9564e+02    -0.4375     -0.536     -0.777    24.5250   997.1736 0.0000e+00
     -0.547 2.4109e-27     5.6318     96.625      0.664   0.656794    -0.0905     -2.348   862.6535 2.2691e+02    -0.4830     -0.537     -0.778    24.5227   997.1742 0.0000e+00
     -0.547 2.6520e-26     5.6347     96.622      0.665   0.657942    -0.0964     -2.348   862.8126 1.8577e+02    -0.4829     -0.537     -0.778    24.5197   997.1749 0.0000e+00
     -0.547 2.9172e-25     5.6341     96.617      0.664   0.656925    -0.0979     -2.348   862.9810 1.6587e+02    -0.5010     -0.536     -0.777    24.5166   997.1757 0.0000e+00
     -0.547 3.2089e-24     5.6357     96.609      0.651   0.644505    -0.1008     -2.348   863.1401 1.5722e+02    -0.5058     -0.537     -0.778    24.5147   997.1761 0.0000e+00
     -0.546 3.5298e-23     5.6383     96.599      0.641   0.634482    -0.1046     -2.348   863.4462 1.5384e+02    -0.5081     -0.536     -0.777    24.5128   997.1767 0.0000e+00
     -0.546 3.8827e-22     5.6365     96.607      0.669   0.662463    -0.1008     -2.348   864.0142 1.5459e+02    -0.5283     -0.536     -0.777    24.5114   997.1770 0.0000e+00
     -0.546 4.2710e-21     5.6371     96.616      0.673   0.666024    -0.0983     -2.348   864.8455 1.5823e+02    -0.5211     -0.536     -0.778    24.5102   997.1773 0.0000e+00
     -0.546 4.6981e-20     5.6372     96.602      0.620   0.614177    -0.1004     -2.349   864.1191 1.5562e+02    -0.4856     -0.536     -0.777    24.5074   997.1780 0.0000e+00
     -0.546 5.1679e-19     5.6358     96.583      0.612   0.605811    -0.1090     -2.349   859.6198 1.4461e+02    -0.4927     -0.536     -0.778    24.5026   997.1792 0.0000e+00
     -0.546 5.6847e-18     5.6377     96.583      0.635   0.628236    -0.1152     -2.349   835.4827 1.2809e+02    -0.5423     -0.536     -0.777    24.4977   997.1804 0.0000e+00
     -0.546 6.2532e-17     5.6395     96.595      0.639   0.631881    -0.1070     -2.349   762.5115 1.0955e+02    -0.5611     -0.536     -0.777    24.4933   997.1815 0.0000e+00
     -0.546 6.8785e-16     5.6385     96.605      0.657   0.649878    -0.0956     -2.349   646.0287 9.6289e+01    -0.5227     -0.536     -0.777    24.4882   997.1828 0.0000e+00
     -0.546 7.5664e-15     5.6371     96.610      0.662   0.655759    -0.0905     -2.349   525.0457 9.0727e+01    -0.5036     -0.536     -0.777    24.4838   997.1840 0.0000e+00
     -0.546 8.3230e-14     5.6377     96.608      0.646   0.639633    -0.0892     -2.349   421.3238 9.1926e+01    -0.5275     -0.536     -0.777    24.4808   997.1846 0.0000e+00
     -0.546 9.1553e-13     5.6393     96.613      0.652   0.644974    -0.0962     -2.349   331.3997 9.8551e+01    -0.5490     -0.536     -0.777    24.4786   997.1852 0.0000e+00
     -0.546 1.0071e-11     5.6397     96.640      0.664   0.656980    -0.1063     -2.349   248.0991 1.0700e+02    -0.5350     -0.535     -0.776    24.4766   997.1858 0.0000e+00
     -0.546 1.1078e-10     5.6404     96.661      0.665   0.658072    -0.1071     -2.349   169.0516 1.1437e+02    -0.4891     -0.536     -0.777    24.4759   997.1859 0.0000e+00
     -0.546 1.2186e-09     5.6400     96.653      0.665   0.658186    -0.1063     -2.349    96.1360 1.2015e+02    -0.4861     -0.535     -0.776    24.4763   997.1858 0.0000e+00
     -0.546 1.3404e-08     5.6393     96.636      0.665   0.658352    -0.1132     -2.349    42.4070 1.2577e+02    -0.5640     -0.536     -0.777    24.4760   997.1859 0.0000e+00
     -0.546 1.4745e-07     5.6422     96.621      0.667   0.660082    -0.1994     -2.349    66.3706 1.3037e+02    -1.2665     -0.535     -0.777    24.4753   997.1861 0.0000e+00
     -0.546      0.000     5.6441     96.610      0.686   0.679101    -0.3591     -2.349   305.6897 1.3175e+02    -2.5570     -0.536     -0.776    24.4747   997.1862 0.0000e+00
     -0.546      0.000     5.6429     96.611      0.706   0.698237    -0.4492     -2.347   658.6208 1.3123e+02    -3.2227     -0.535     -0.777    24.4749   997.1862 0.0000e+00
     -0.546      0.000     5.6415     96.611      0.709   0.701379    -0.4562     -2.327   838.2857 1.3259e+02    -3.1864     -0.536     -0.776    24.4760   997.1859 0.0000e+00
     -0.546      0.002     5.6408     96.599      0.725   0.717079    -0.3663     -2.109   954.7622 1.3658e+02    -2.4784     -0.536     -0.777    24.4778   997.1854 0.0000e+00
     -0.546      0.009     5.6396     96.602      1.031   1.014788    -0.2024     -0.855  1135.4674 1.4171e+02    -1.1186     -0.535     -0.776    24.4777   997.1855 0.0000e+00
     -0.546      0.021     5.6399     96.626      4.524   4.427666    -0.1227      1.653  1228.2263 1.4829e+02    -0.3130     -0.536     -0.777    24.4776   997.1855 0.0000e+00
     -0.545      0.038     5.6412     96.656     12.171  11.876511    -0.1133      4.080  1211.8643 1.5750e+02    -0.2095     -0.536     -0.777    24.4749   997.1861 0.0000e+00
     -0.539      0.057     5.6390     96.677     19.678  19.136427    -0.0975      5.664   937.6369 1.8688e+02    -0.2277     -0.535     -0.774    24.4750   997.1862 0.0000e+00
     -0.519      0.073     5.6402     96.687     27.237  26.398562    -0.0445      6.632   434.2910 2.1212e+02    -0.3694     -0.515     -0.746    24.4653   997.1886 0.0000e+00
     -0.488      0.086     5.6622     96.694     34.984  33.835847     0.0337      7.208   162.1732 1.9952e+02    -0.5792     -0.478     -0.692    24.2758   997.2364 0.0000e+00
     -0.457      0.095     5.7018     96.697     38.560  37.234617     0.0674      7.558   141.5901 2.6343e+02    -0.6673     -0.447     -0.648    23.9180   997.3277 0.0000e+00
     -0.432      0.098     5.7334     96.694     38.941  37.542071     0.0766      7.773   143.4355 3.6022e+02    -0.5832     -0.423     -0.614    23.6377   997.3979 0.0000e+00
     -0.409      0.097     5.7519     96.695     39.008  37.553151     0.0591      7.910   145.7680 4.3754e+02     0.4053     -0.401     -0.581    23.4647   997.4417 0.0000e+00
     -0.386      0.093     5.7641     96.700     38.993  37.495471    -0.0063      8.003   145.7881 4.8575e+02     2.2393     -0.379     -0.550    23.3571   997.4714 0.0000e+00
     -0.363      0.093     5.7731     96.706     38.952  37.415878    -0.0465      8.063   145.3986 3.4432e+02     3.3712     -0.356     -0.517    23.2785   997.4910 0.0000e+00
     -0.341      0.095     5.7814     96.719     38.930  37.352441    -0.0021      8.097   146.2217 2.0310e+02     4.8809     -0.333     -0.483    23.1954   997.5107 0.0000e+00
     -0.318      0.098     5.7892     96.757     38.925  37.299679     0.4004      8.110   146.3615 1.9372e+02    20.3621     -0.313     -0.454    23.1266   997.5273 0.0000e+00
     -0.293      0.101     5.7956     96.857     38.966  37.285658     1.1013      8.098   146.4001 1.9349e+02    48.6826     -0.289     -0.419    23.0719   997.5403 0.0000e+00
     -0.264      0.102     5.8009     97.017     39.045  37.309785     1.4763      8.068   148.3238 1.9152e+02    63.9858     -0.258     -0.374    23.0246   997.5517 0.0000e+00
     -0.236      0.102     5.8078     97.231     39.119  37.337430     1.5173      8.038   151.1219 1.9097e+02    64.0445     -0.230     -0.334    22.9702   997.5646 0.0000e+00
     -0.209      0.100     5.8150     97.508     39.180  37.365950     1.5631      8.013   152.6990 1.9395e+02    49.4582     -0.206     -0.297    22.9102   997.5790 0.0000e+00
     -0.184      0.096     5.8297     97.805     39.229  37.400671     1.6225      7.993   153.2827 1.9904e+02    22.4820     -0.180     -0.259    22.8381   997.5961 0.0000e+00
     -0.159      0.090     5.8479     98.095     39.260  37.439851     1.6453      7.973   154.0492 2.0422e+02     7.7575     -0.154     -0.225    22.7660   997.6132 0.0000e+00
     -0.137      0.083     5.8649     98.392     39.262  37.458836     1.6482      7.951   154.9967 2.0853e+02     6.4143     -0.135     -0.195    22.7150   997.6252 0.0000e+00
     -0.117      0.073     5.8888     98.667     39.228  37.439814     1.6836      7.925   155.9638 2.1227e+02     6.2733     -0.114     -0.165    22.6701   997.6358 0.0000e+00
     -0.097      0.063     5.9091     98.872     39.182  37.400297     1.7438      7.902   156.8805 2.1551e+02     6.1845     -0.093     -0.135    22.6530   997.6399 0.0000e+00
     -0.081      0.054     5.9232     99.008     39.143  37.361902     1.7697      7.886   157.7341 2.1717e+02     6.0935     -0.077     -0.112    22.6747   997.6350 0.0000e+00
     -0.070      0.046     5.9385     99.051     39.080  37.292955     1.7706      7.880   158.5413 2.1648e+02     6.0588     -0.067     -0.098    22.7010   997.6289 0.0000e+00
     -0.063      0.041     5.9560     98.961     39.009  37.201395     1.7816      7.885   159.6715 2.1463e+02     6.0595     -0.062     -0.090    22.7186   997.6247 0.0000e+00
     -0.057      0.041     5.9653     98.541     38.987  37.143470     1.8153      7.890   160.8158 2.1318e+02     6.0696     -0.056     -0.082    22.7231   997.6236 0.0000e+00
