* Sea-Bird SBE19plus  Data File:
* FileName = C:\DATA\092719_fcr_0007.hex
* Software version 2.8.0.119 SB_Terminal.dll
* Temperature SN = 7809
* Conductivity SN = 7809
* System UpLoad Time = Sep 28 2019 13:26:58
* <ApplicationData>
* <Seaterm232>
* <SoftwareVersion>2.8.0.119</SoftwareVersion>
* <BuildDate>07-Nov-2018</BuildDate>
* </Seaterm232>
* </ApplicationData>
* cast   7 27 Sep 2019 13:17:03 samples 5944 to 6879, avg = 1, stop = mag switch
# nquan = 16
# nvalues = 817                         
# units = specified
# name 0 = depFM: Depth [fresh water, m]
# name 1 = dz/dtM: Descent Rate [m/s]
# name 2 = sbeox0ML/L: Oxygen, SBE 43 [ml/l]
# name 3 = sbeox0PS: Oxygen, SBE 43 [% saturation]
# name 4 = specc: Specific Conductance [uS/cm]
# name 5 = c0uS/cm: Conductivity [uS/cm]
# name 6 = flECO-AFL: Fluorescence, WET Labs ECO-AFL/FL [mg/m^3]
# name 7 = ph: pH
# name 8 = orp: Oxidation Reduction Potential [mV]
# name 9 = par/sat/log: PAR/Logarithmic, Satlantic
# name 10 = turbWETntu0: Turbidity, WET Labs ECO [NTU]
# name 11 = prdM: Pressure, Strain Gauge [db]
# name 12 = prdE: Pressure, Strain Gauge [psi]
# name 13 = tv290C: Temperature [ITS-90, deg C]
# name 14 = density00: Density [density, kg/m^3]
# name 15 = flag:  0.000e+00
# span 0 =     -0.545,      7.367       
# span 1 =     -0.276,      0.308       
# span 2 =     0.0793,     6.8101       
# span 3 =      1.083,    111.699       
# span 4 =      1.228,    104.295       
# span 5 =   1.094429,  87.336116       
# span 6 =    -2.2153,   236.8778       
# span 7 =      6.331,      8.739       
# span 8 =  -998.1729,   143.0118       
# span 9 = 1.2347e-01, 1.9643e+03       
# span 10 =    -0.5108,   894.4556      
# span 11 =     -0.538,      7.225      
# span 12 =     -0.780,     10.479      
# span 13 =    12.6032,    22.9379      
# span 14 =   997.5716,   999.4937      
# span 15 = 0.0000e+00, 0.0000e+00      
# interval = seconds: 0.25
# start_time = Sep 27 2019 13:17:03 [Instrument's time stamp, header]
# bad_flag = -9.990e-29
# <Sensors count="9" >
#   <sensor Channel="1" >
#     <!-- Count, Temperature -->
#     <TemperatureSensor SensorID="58" >
#       <SerialNumber>7809</SerialNumber>
#       <CalibrationDate>24-Mar-19</CalibrationDate>
#       <A0>1.21792325e-003</A0>
#       <A1>2.81669265e-004</A1>
#       <A2>-1.60333336e-006</A2>
#       <A3>1.98414625e-007</A3>
#       <Slope>1.00000000</Slope>
#       <Offset>0.0000</Offset>
#     </TemperatureSensor>
#   </sensor>
#   <sensor Channel="2" >
#     <!-- Frequency 0, Conductivity -->
#     <ConductivitySensor SensorID="3" >
#       <SerialNumber>7809</SerialNumber>
#       <CalibrationDate>24-Mar-19</CalibrationDate>
#       <UseG_J>1</UseG_J>
#       <!-- Cell const and series R are applicable only for wide range sensors. -->
#       <SeriesR>0.0000</SeriesR>
#       <CellConst>2000.0000</CellConst>
#       <ConductivityType>0</ConductivityType>
#       <Coefficients equation="0" >
#         <A>0.00000000e+000</A>
#         <B>0.00000000e+000</B>
#         <C>0.00000000e+000</C>
#         <D>0.00000000e+000</D>
#         <M>0.0</M>
#         <CPcor>-9.57000000e-008</CPcor>
#       </Coefficients>
#       <Coefficients equation="1" >
#         <G>-1.00589325e+000</G>
#         <H>1.26816302e-001</H>
#         <I>-1.51560448e-004</I>
#         <J>2.67137274e-005</J>
#         <CPcor>-9.57000000e-008</CPcor>
#         <CTcor>3.2500e-006</CTcor>
#         <!-- WBOTC not applicable unless ConductivityType = 1. -->
#         <WBOTC>0.00000000e+000</WBOTC>
#       </Coefficients>
#       <Slope>1.00000000</Slope>
#       <Offset>0.00000</Offset>
#     </ConductivitySensor>
#   </sensor>
#   <sensor Channel="3" >
#     <!-- Count, Pressure, Strain Gauge -->
#     <PressureSensor SensorID="46" >
#       <SerialNumber>7809</SerialNumber>
#       <CalibrationDate>11-Mar-19</CalibrationDate>
#       <PA0>4.56561833e-002</PA0>
#       <PA1>4.85095118e-004</PA1>
#       <PA2>-2.88327090e-012</PA2>
#       <PTEMPA0>-5.48784562e+001</PTEMPA0>
#       <PTEMPA1>5.53756816e+001</PTEMPA1>
#       <PTEMPA2>-5.86727098e-001</PTEMPA2>
#       <PTCA0>5.25246745e+005</PTCA0>
#       <PTCA1>1.22304214e+001</PTCA1>
#       <PTCA2>-3.56745036e-001</PTCA2>
#       <PTCB0>2.51668750e+001</PTCB0>
#       <PTCB1>3.75000000e-004</PTCB1>
#       <PTCB2>0.00000000e+000</PTCB2>
#       <Offset>0.000000</Offset>
#     </PressureSensor>
#   </sensor>
#   <sensor Channel="4" >
#     <!-- A/D voltage 0, Oxygen, SBE 43 -->
#     <OxygenSensor SensorID="38" >
#       <SerialNumber>0434</SerialNumber>
#       <CalibrationDate>13-Apr-19</CalibrationDate>
#       <Use2007Equation>1</Use2007Equation>
#       <CalibrationCoefficients equation="0" >
#         <!-- Coefficients for Owens-Millard equation. -->
#         <Boc>0.0000</Boc>
#         <Soc>0.0000e+000</Soc>
#         <offset>0.0000</offset>
#         <Pcor>0.00e+000</Pcor>
#         <Tcor>0.0000</Tcor>
#         <Tau>0.0</Tau>
#       </CalibrationCoefficients>
#       <CalibrationCoefficients equation="1" >
#         <!-- Coefficients for Sea-Bird equation - SBE calibration in 2007 and later. -->
#         <Soc>4.2007e-001</Soc>
#         <offset>-0.6109</offset>
#         <A>-4.3656e-003</A>
#         <B> 1.7017e-004</B>
#         <C>-2.5341e-006</C>
#         <D0> 2.5826e+000</D0>
#         <D1> 1.92634e-004</D1>
#         <D2>-4.64803e-002</D2>
#         <E> 3.6000e-002</E>
#         <Tau20> 1.1800</Tau20>
#         <H1>-3.3000e-002</H1>
#         <H2> 5.0000e+003</H2>
#         <H3> 1.4500e+003</H3>
#       </CalibrationCoefficients>
#     </OxygenSensor>
#   </sensor>
#   <sensor Channel="5" >
#     <!-- A/D voltage 1, PAR/Logarithmic, Satlantic -->
#     <PARLog_SatlanticSensor SensorID="76" >
#       <SerialNumber>1122</SerialNumber>
#       <CalibrationDate>08-May-2019</CalibrationDate>
#       <a0>9.7456e-001</a0>
#       <a1>8.1640e-001</a1>
#       <Im>1.3589e+000</Im>
#       <Multiplier>1.0000e+000</Multiplier>
#     </PARLog_SatlanticSensor>
#   </sensor>
#   <sensor Channel="6" >
#     <!-- A/D voltage 2, pH -->
#     <pH_Sensor SensorID="43" >
#       <SerialNumber>0363</SerialNumber>
#       <CalibrationDate>15-Apr-19</CalibrationDate>
#       <Slope>4.5952</Slope>
#       <Offset>2.5370</Offset>
#     </pH_Sensor>
#   </sensor>
#   <sensor Channel="7" >
#     <!-- A/D voltage 3, Oxidation Reduction Potential -->
#     <OxidationReductionPotentialSensor SensorID="41" >
#       <SerialNumber>0363</SerialNumber>
#       <CalibrationDate>15-Apr-19</CalibrationDate>
#       <B>2.499480</B>
#       <M>-0.496195</M>
#       <Offset>0.0</Offset>
#     </OxidationReductionPotentialSensor>
#   </sensor>
#   <sensor Channel="8" >
#     <!-- A/D voltage 4, Fluorometer, WET Labs ECO-AFL/FL -->
#     <FluoroWetlabECO_AFL_FL_Sensor SensorID="20" >
#       <SerialNumber>FLNTURT-2496</SerialNumber>
#       <CalibrationDate>08-May-2019</CalibrationDate>
#       <ScaleFactor>5.00000000e+001</ScaleFactor>
#       <!-- Dark output -->
#       <Vblank>0.0550</Vblank>
#     </FluoroWetlabECO_AFL_FL_Sensor>
#   </sensor>
#   <sensor Channel="9" >
#     <!-- A/D voltage 5, Turbidity Meter, WET Labs, ECO-NTU -->
#     <TurbidityMeter SensorID="67" >
#       <SerialNumber>FLNTURT-2496</SerialNumber>
#       <CalibrationDate>08-May-2019</CalibrationDate>
#       <ScaleFactor>189.000000</ScaleFactor>
#       <!-- Dark output -->
#       <DarkVoltage>0.071000</DarkVoltage>
#     </TurbidityMeter>
#   </sensor>
# </Sensors>
# datcnv_date = Sep 28 2019 13:33:41, 7.26.7.129 [datcnv_vars = 15]
# datcnv_in = C:\DATA\092719_fcr_45.hex C:\DATA\SBE19plusV2_7809.xmlcon
# datcnv_skipover = 0
# datcnv_ox_hysteresis_correction = yes
# datcnv_ox_tau_correction = yes
# filter_date = Sep 28 2019 13:35:46, 7.26.7.129
# filter_in = C:\DATA\092719_fcr_45.cnv
# filter_low_pass_tc_A = 0.030
# filter_low_pass_tc_B = 0.150
# filter_low_pass_A_vars = sbeox0ML/L prdM prdE tv290C density00
# filter_low_pass_B_vars = depFM dz/dtM sbeox0PS specc c0uS/cm flECO-AFL ph orp par/sat/log turbWETntu0
# alignctd_date = Sep 28 2019 13:36:15, 7.26.7.129
# alignctd_in = C:\DATA\092719_fcr_45.cnv
# alignctd_adv = dz/dtM 1.000, sbeox0PS 1.000, specc 1.000, c0uS/cm 1.000, flECO-AFL 1.000, ph 1.000, orp 1.000, turbWETntu0 1.000                                                                                                   
# file_type = ascii
*END*
     -0.545 5.2496e-09     6.0634     94.407      1.269   1.130630    -0.3408      6.645  -998.1729 3.0835e+02     0.0460     -0.534     -0.775    19.5272   998.3068 0.0000e+00
     -0.545 5.7746e-08     6.0623     94.409      1.228   1.094429    -0.3551      6.644  -992.1072 3.9750e+02     0.0619     -0.534     -0.775    19.5277   998.3067 0.0000e+00
     -0.545 6.3521e-07     6.0636     94.424      1.230   1.095678    -0.3506      6.648  -991.7078 7.1608e+02    -0.0016     -0.535     -0.775    19.5272   998.3068 0.0000e+00
     -0.545      0.000     6.0637     94.429      1.286   1.145735    -0.2868      6.657  -994.6341 1.1968e+03    -0.1976     -0.535     -0.775    19.5283   998.3065 0.0000e+00
     -0.545      0.000     6.0627     94.434      1.481   1.319497    -0.1732      6.667  -980.6834 1.4002e+03    -0.4403     -0.535     -0.775    19.5277   998.3067 0.0000e+00
     -0.545      0.001     6.0619     94.450      2.377   2.119457    -0.1129      6.702  -746.8874 1.5572e+03    -0.5108     -0.535     -0.777    19.5302   998.3061 0.0000e+00
     -0.545      0.009     6.0646     94.439      9.772   8.727026    -0.0773      6.882  -266.2378 1.7738e+03    -0.1655     -0.534     -0.775    19.5292   998.3065 0.0000e+00
     -0.545      0.037     6.0634     94.399     25.335  22.754988     0.2398      7.285    62.4285 1.8372e+03     3.3416     -0.536     -0.776    19.5364   998.3048 0.0000e+00
     -0.545      0.085     6.0631     94.305     37.240  33.808923     0.8082      7.752   129.3165 1.8438e+03     9.7108     -0.533     -0.773    19.5308   998.3063 0.0000e+00
     -0.542      0.143     6.0648     94.003     40.233  37.088403     1.1166      8.117   124.3490 1.8666e+03    13.1681     -0.538     -0.780    19.5471   998.3026 0.0000e+00
     -0.512      0.202     6.0656     93.369     39.973  37.404858     1.1424      8.373   117.9179 1.8989e+03    13.5501     -0.528     -0.765    19.5283   998.3072 0.0000e+00
     -0.430      0.254     6.0530     92.429     39.517  37.382041     1.1280      8.548   116.8622 1.9176e+03    14.3952     -0.430     -0.624    19.6005   998.3001 0.0000e+00
     -0.324      0.292     5.9769     91.313     39.200  37.320888     1.0994      8.655   115.0261 1.9298e+03    15.8495     -0.308     -0.447    20.2298   998.1752 0.0000e+00
     -0.229      0.308     5.8564     90.193     38.985  37.237063     1.0820      8.714   112.3240 1.9643e+03    16.5825     -0.221     -0.321    21.1303   997.9834 0.0000e+00
     -0.148      0.296     5.7345     89.220     38.810  37.130366     1.0916      8.738   110.4326 1.8979e+03    16.4089     -0.144     -0.210    21.8552   997.8228 0.0000e+00
     -0.073      0.258     5.6174     88.493     38.686  37.046492     1.1543      8.739   109.2790 1.5604e+03    13.8812     -0.068     -0.098    22.3779   997.7039 0.0000e+00
     -0.010      0.209     5.5169     88.038     38.606  36.984692     1.2419      8.731   108.4426 1.2704e+03     9.1895     -0.004     -0.005    22.6480   997.6415 0.0000e+00
      0.037      0.160     5.4329     87.826     38.582  36.954427     1.2753      8.721   107.6340 1.4144e+03     6.6127      0.041      0.060    22.7753   997.6119 0.0000e+00
      0.072      0.113     5.3652     87.837     38.649  36.997918     1.2721      8.709   106.9011 1.5655e+03     6.3547      0.075      0.110    22.8418   997.5964 0.0000e+00
      0.092      0.073     5.3171     88.020     38.739  37.066202     1.2806      8.698   106.3783 1.4635e+03     6.2328      0.096      0.139    22.8790   997.5877 0.0000e+00
      0.097      0.040     5.2882     88.280     38.777  37.081803     1.2923      8.686   105.7863 1.4131e+03     6.0897      0.098      0.141    22.9092   997.5805 0.0000e+00
      0.095      0.015     5.2768     88.666     38.787  37.059572     1.2922      8.673   105.1642 1.4400e+03     6.0335      0.093      0.134    22.8921   997.5845 0.0000e+00
      0.094     -0.002     5.2823     89.445     38.816  37.051255     1.2793      8.661   104.8789 1.4186e+03     6.0447      0.092      0.133    22.8538   997.5935 0.0000e+00
      0.093     -0.011     5.2976     90.545     38.908  37.108141     1.2663      8.651   104.8323 1.4791e+03     6.0288      0.092      0.134    22.8363   997.5977 0.0000e+00
      0.089     -0.012     5.3173     91.535     39.068  37.239543     1.2728      8.641   104.6864 1.5098e+03     6.1363      0.088      0.129    22.8158   997.6025 0.0000e+00
      0.082     -0.009     5.3339     92.275     39.220  37.370500     1.2888      8.628   104.3204 1.3961e+03     6.3933      0.080      0.116    22.7690   997.6135 0.0000e+00
      0.076     -0.005     5.3860     92.752     39.349  37.485497     1.2861      8.612   103.9349 1.4836e+03     6.5149      0.073      0.105    22.7183   997.6253 0.0000e+00
      0.076     -0.001     5.4742     92.832     39.487  37.614343     1.2748      8.598   103.7248 1.5013e+03     6.4919      0.072      0.106    22.6782   997.6347 0.0000e+00
      0.080      0.003     5.5356     92.476     39.597  37.722335     1.3351      8.589   103.5005 1.2641e+03     6.4756      0.078      0.114    22.6502   997.6413 0.0000e+00
      0.084      0.005     5.5800     91.759     39.649  37.775610     1.4601      8.587   103.2017 1.2025e+03     6.5156      0.083      0.122    22.6346   997.6450 0.0000e+00
      0.087      0.005     5.6167     90.775     39.622  37.750677     1.5293      8.586   102.9508 1.3089e+03     6.5487      0.085      0.124    22.6237   997.6476 0.0000e+00
      0.087      0.004     5.6211     89.600     39.549  37.674778     1.5385      8.582   102.7047 1.3459e+03     6.5155      0.086      0.125    22.6207   997.6483 0.0000e+00
      0.086      0.001     5.5970     88.345     39.503  37.619623     1.5284      8.575   102.5489 1.3915e+03     6.4421      0.085      0.123    22.6279   997.6467 0.0000e+00
      0.085     -0.002     5.5509     87.240     39.484  37.591602     1.5111      8.567   102.3570 1.4774e+03     6.3490      0.081      0.119    22.6342   997.6452 0.0000e+00
      0.085     -0.004     5.4892     86.423     39.489  37.589864     1.5118      8.560   102.0195 1.4518e+03     6.3071      0.082      0.120    22.6365   997.6447 0.0000e+00
      0.085     -0.006     5.4190     85.882     39.504  37.598600     1.5194      8.552   101.7383 1.2843e+03     6.2966      0.084      0.122    22.6293   997.6464 0.0000e+00
      0.084     -0.008     5.3373     85.561     39.482  37.570269     1.5337      8.542   101.5383 1.1626e+03     6.3210      0.083      0.121    22.6097   997.6508 0.0000e+00
      0.081     -0.009     5.2690     85.345     39.422  37.501203     1.5545      8.530   101.4081 1.2321e+03     6.4384      0.081      0.117    22.5961   997.6541 0.0000e+00
      0.076     -0.010     5.2221     85.123     39.329  37.398270     1.5625      8.519   102.2291 1.3536e+03     6.5685      0.074      0.107    22.5898   997.6555 0.0000e+00
      0.072     -0.011     5.1899     84.866     39.216  37.277829     1.5700      8.508   112.7543 1.4026e+03     6.6152      0.069      0.100    22.5831   997.6571 0.0000e+00
      0.071     -0.011     5.1747     84.611     39.133  37.187487     1.5666      8.493   132.0461 1.3739e+03     6.5771      0.070      0.101    22.5752   997.6590 0.0000e+00
      0.070     -0.010     5.1656     84.385     39.086  37.131108     1.5393      8.473   142.4118 1.3282e+03     6.5338      0.070      0.102    22.5604   997.6623 0.0000e+00
      0.066     -0.008     5.1547     84.240     39.068  37.103933     1.5170      8.457   143.0118 1.3934e+03     6.5183      0.065      0.094    22.5404   997.6670 0.0000e+00
      0.061     -0.006     5.1396     84.285     39.081  37.112794     1.5138      8.447   142.5708 1.4534e+03     6.5204      0.058      0.083    22.5213   997.6713 0.0000e+00
      0.060     -0.003     5.1249     84.604     39.077  37.111300     1.5182      8.437   141.8979 1.4803e+03     6.5273      0.059      0.085    22.5100   997.6738 0.0000e+00
      0.060      0.002     5.1123     85.169     39.047  37.085877     1.5177      8.426   141.0702 1.4955e+03     6.5688      0.059      0.088    22.4957   997.6772 0.0000e+00
      0.060      0.009     5.1020     85.860     39.020  37.059307     1.5171      8.416   140.3062 1.3133e+03     6.6610      0.057      0.083    22.4765   997.6816 0.0000e+00
      0.063      0.019     5.1029     86.583     39.009  37.043934     1.5194      8.404   139.8020 1.1923e+03     6.7250      0.061      0.088    22.4743   997.6821 0.0000e+00
      0.068      0.028     5.1222     87.316     38.998  37.026945     1.5190      8.387   138.6745 1.2522e+03     6.7530      0.067      0.099    22.4815   997.6805 0.0000e+00
      0.075      0.034     5.1592     87.996     38.954  36.980825     1.5297      8.370   131.2334 1.2631e+03     6.8685      0.071      0.104    22.4840   997.6799 0.0000e+00
      0.087      0.038     5.2042     88.516     38.900  36.930623     1.5533      8.356   117.8034 1.2587e+03     7.0723      0.083      0.120    22.4832   997.6801 0.0000e+00
      0.104      0.036     5.2471     88.828     38.892  36.927747     1.5622      8.347   109.0525 1.3391e+03     7.1851      0.103      0.150    22.4782   997.6814 0.0000e+00
      0.118      0.027     5.2948     88.978     38.907  36.946059     1.5675      8.343   106.2171 1.3955e+03     7.1836      0.118      0.170    22.4662   997.6842 0.0000e+00
      0.125      0.013     5.3396     89.023     38.923  36.961611     1.5660      8.340   104.5142 1.3425e+03     6.8905      0.123      0.179    22.4581   997.6861 0.0000e+00
      0.127     -0.003     5.3720     88.930     38.958  36.988845     1.5353      8.336   103.2621 1.2707e+03     6.3284      0.127      0.183    22.4616   997.6853 0.0000e+00
      0.123     -0.013     5.3888     88.654     38.933  36.957965     1.5077      8.329   102.3486 1.2928e+03     6.0241      0.125      0.181    22.4702   997.6833 0.0000e+00
      0.110     -0.015     5.3945     88.223     38.819  36.842115     1.5011      8.317   101.7299 1.3568e+03     6.0291      0.112      0.161    22.4778   997.6815 0.0000e+00
      0.093     -0.012     5.3994     87.723     38.705  36.730632     1.5081      8.304   101.1152 1.2654e+03     6.1605      0.087      0.126    22.4778   997.6813 0.0000e+00
      0.086     -0.008     5.3956     87.235     38.666  36.689077     1.5231      8.294   100.5953 1.0404e+03     6.3336      0.074      0.108    22.4691   997.6834 0.0000e+00
      0.096     -0.006     5.3795     86.785     38.713  36.720506     1.5349      8.284   100.2627 1.0402e+03     6.4183      0.093      0.135    22.4590   997.6857 0.0000e+00
      0.111     -0.002     5.3521     86.386     38.804  36.793261     1.5293      8.274    99.8465 1.2948e+03     6.4639      0.115      0.167    22.4468   997.6886 0.0000e+00
      0.112      0.007     5.3202     86.092     38.889  36.870521     1.5338      8.264    99.4347 1.4224e+03     6.5571      0.114      0.166    22.4422   997.6897 0.0000e+00
      0.102      0.020     5.2903     85.968     38.904  36.892964     1.5718      8.248    99.0694 1.4045e+03     6.6927      0.100      0.146    22.4441   997.6892 0.0000e+00
