* Sea-Bird SBE19plus  Data File:
* FileName = C:\DATA\092719_fcr_0006.hex
* Software version 2.8.0.119 SB_Terminal.dll
* Temperature SN = 7809
* Conductivity SN = 7809
* System UpLoad Time = Sep 28 2019 13:26:32
* <ApplicationData>
* <Seaterm232>
* <SoftwareVersion>2.8.0.119</SoftwareVersion>
* <BuildDate>07-Nov-2018</BuildDate>
* </Seaterm232>
* </ApplicationData>
* cast   6 27 Sep 2019 13:09:17 samples 5119 to 5943, avg = 1, stop = mag switch
# nquan = 16
# nvalues = 709                         
# units = specified
# name 0 = depFM: Depth [fresh water, m]
# name 1 = dz/dtM: Descent Rate [m/s]
# name 2 = sbeox0ML/L: Oxygen, SBE 43 [ml/l]
# name 3 = sbeox0PS: Oxygen, SBE 43 [% saturation]
# name 4 = specc: Specific Conductance [uS/cm]
# name 5 = c0uS/cm: Conductivity [uS/cm]
# name 6 = flECO-AFL: Fluorescence, WET Labs ECO-AFL/FL [mg/m^3]
# name 7 = ph: pH
# name 8 = orp: Oxidation Reduction Potential [mV]
# name 9 = par/sat/log: PAR/Logarithmic, Satlantic
# name 10 = turbWETntu0: Turbidity, WET Labs ECO [NTU]
# name 11 = prdM: Pressure, Strain Gauge [db]
# name 12 = prdE: Pressure, Strain Gauge [psi]
# name 13 = tv290C: Temperature [ITS-90, deg C]
# name 14 = density00: Density [density, kg/m^3]
# name 15 = flag:  0.000e+00
# span 0 =     -0.545,      5.453       
# span 1 =     -0.392,      0.331       
# span 2 =     0.0747,     6.8873       
# span 3 =      1.021,    113.584       
# span 4 =     27.018,    110.577       
# span 5 =  25.103513,  93.460762       
# span 6 =     0.1279,     9.7099       
# span 7 =      6.503,      8.818       
# span 8 =    -4.7359,   203.8879       
# span 9 = 1.2348e-01, 3.5941e+02       
# span 10 =     2.2471,    70.0363      
# span 11 =     -0.538,      5.348      
# span 12 =     -0.780,      7.756      
# span 13 =    12.7464,    23.0624      
# span 14 =   997.5433,   999.4587      
# span 15 = 0.0000e+00, 0.0000e+00      
# interval = seconds: 0.25
# start_time = Sep 27 2019 13:09:17 [Instrument's time stamp, header]
# bad_flag = -9.990e-29
# <Sensors count="9" >
#   <sensor Channel="1" >
#     <!-- Count, Temperature -->
#     <TemperatureSensor SensorID="58" >
#       <SerialNumber>7809</SerialNumber>
#       <CalibrationDate>24-Mar-19</CalibrationDate>
#       <A0>1.21792325e-003</A0>
#       <A1>2.81669265e-004</A1>
#       <A2>-1.60333336e-006</A2>
#       <A3>1.98414625e-007</A3>
#       <Slope>1.00000000</Slope>
#       <Offset>0.0000</Offset>
#     </TemperatureSensor>
#   </sensor>
#   <sensor Channel="2" >
#     <!-- Frequency 0, Conductivity -->
#     <ConductivitySensor SensorID="3" >
#       <SerialNumber>7809</SerialNumber>
#       <CalibrationDate>24-Mar-19</CalibrationDate>
#       <UseG_J>1</UseG_J>
#       <!-- Cell const and series R are applicable only for wide range sensors. -->
#       <SeriesR>0.0000</SeriesR>
#       <CellConst>2000.0000</CellConst>
#       <ConductivityType>0</ConductivityType>
#       <Coefficients equation="0" >
#         <A>0.00000000e+000</A>
#         <B>0.00000000e+000</B>
#         <C>0.00000000e+000</C>
#         <D>0.00000000e+000</D>
#         <M>0.0</M>
#         <CPcor>-9.57000000e-008</CPcor>
#       </Coefficients>
#       <Coefficients equation="1" >
#         <G>-1.00589325e+000</G>
#         <H>1.26816302e-001</H>
#         <I>-1.51560448e-004</I>
#         <J>2.67137274e-005</J>
#         <CPcor>-9.57000000e-008</CPcor>
#         <CTcor>3.2500e-006</CTcor>
#         <!-- WBOTC not applicable unless ConductivityType = 1. -->
#         <WBOTC>0.00000000e+000</WBOTC>
#       </Coefficients>
#       <Slope>1.00000000</Slope>
#       <Offset>0.00000</Offset>
#     </ConductivitySensor>
#   </sensor>
#   <sensor Channel="3" >
#     <!-- Count, Pressure, Strain Gauge -->
#     <PressureSensor SensorID="46" >
#       <SerialNumber>7809</SerialNumber>
#       <CalibrationDate>11-Mar-19</CalibrationDate>
#       <PA0>4.56561833e-002</PA0>
#       <PA1>4.85095118e-004</PA1>
#       <PA2>-2.88327090e-012</PA2>
#       <PTEMPA0>-5.48784562e+001</PTEMPA0>
#       <PTEMPA1>5.53756816e+001</PTEMPA1>
#       <PTEMPA2>-5.86727098e-001</PTEMPA2>
#       <PTCA0>5.25246745e+005</PTCA0>
#       <PTCA1>1.22304214e+001</PTCA1>
#       <PTCA2>-3.56745036e-001</PTCA2>
#       <PTCB0>2.51668750e+001</PTCB0>
#       <PTCB1>3.75000000e-004</PTCB1>
#       <PTCB2>0.00000000e+000</PTCB2>
#       <Offset>0.000000</Offset>
#     </PressureSensor>
#   </sensor>
#   <sensor Channel="4" >
#     <!-- A/D voltage 0, Oxygen, SBE 43 -->
#     <OxygenSensor SensorID="38" >
#       <SerialNumber>0434</SerialNumber>
#       <CalibrationDate>13-Apr-19</CalibrationDate>
#       <Use2007Equation>1</Use2007Equation>
#       <CalibrationCoefficients equation="0" >
#         <!-- Coefficients for Owens-Millard equation. -->
#         <Boc>0.0000</Boc>
#         <Soc>0.0000e+000</Soc>
#         <offset>0.0000</offset>
#         <Pcor>0.00e+000</Pcor>
#         <Tcor>0.0000</Tcor>
#         <Tau>0.0</Tau>
#       </CalibrationCoefficients>
#       <CalibrationCoefficients equation="1" >
#         <!-- Coefficients for Sea-Bird equation - SBE calibration in 2007 and later. -->
#         <Soc>4.2007e-001</Soc>
#         <offset>-0.6109</offset>
#         <A>-4.3656e-003</A>
#         <B> 1.7017e-004</B>
#         <C>-2.5341e-006</C>
#         <D0> 2.5826e+000</D0>
#         <D1> 1.92634e-004</D1>
#         <D2>-4.64803e-002</D2>
#         <E> 3.6000e-002</E>
#         <Tau20> 1.1800</Tau20>
#         <H1>-3.3000e-002</H1>
#         <H2> 5.0000e+003</H2>
#         <H3> 1.4500e+003</H3>
#       </CalibrationCoefficients>
#     </OxygenSensor>
#   </sensor>
#   <sensor Channel="5" >
#     <!-- A/D voltage 1, PAR/Logarithmic, Satlantic -->
#     <PARLog_SatlanticSensor SensorID="76" >
#       <SerialNumber>1122</SerialNumber>
#       <CalibrationDate>08-May-2019</CalibrationDate>
#       <a0>9.7456e-001</a0>
#       <a1>8.1640e-001</a1>
#       <Im>1.3589e+000</Im>
#       <Multiplier>1.0000e+000</Multiplier>
#     </PARLog_SatlanticSensor>
#   </sensor>
#   <sensor Channel="6" >
#     <!-- A/D voltage 2, pH -->
#     <pH_Sensor SensorID="43" >
#       <SerialNumber>0363</SerialNumber>
#       <CalibrationDate>15-Apr-19</CalibrationDate>
#       <Slope>4.5952</Slope>
#       <Offset>2.5370</Offset>
#     </pH_Sensor>
#   </sensor>
#   <sensor Channel="7" >
#     <!-- A/D voltage 3, Oxidation Reduction Potential -->
#     <OxidationReductionPotentialSensor SensorID="41" >
#       <SerialNumber>0363</SerialNumber>
#       <CalibrationDate>15-Apr-19</CalibrationDate>
#       <B>2.499480</B>
#       <M>-0.496195</M>
#       <Offset>0.0</Offset>
#     </OxidationReductionPotentialSensor>
#   </sensor>
#   <sensor Channel="8" >
#     <!-- A/D voltage 4, Fluorometer, WET Labs ECO-AFL/FL -->
#     <FluoroWetlabECO_AFL_FL_Sensor SensorID="20" >
#       <SerialNumber>FLNTURT-2496</SerialNumber>
#       <CalibrationDate>08-May-2019</CalibrationDate>
#       <ScaleFactor>5.00000000e+001</ScaleFactor>
#       <!-- Dark output -->
#       <Vblank>0.0550</Vblank>
#     </FluoroWetlabECO_AFL_FL_Sensor>
#   </sensor>
#   <sensor Channel="9" >
#     <!-- A/D voltage 5, Turbidity Meter, WET Labs, ECO-NTU -->
#     <TurbidityMeter SensorID="67" >
#       <SerialNumber>FLNTURT-2496</SerialNumber>
#       <CalibrationDate>08-May-2019</CalibrationDate>
#       <ScaleFactor>189.000000</ScaleFactor>
#       <!-- Dark output -->
#       <DarkVoltage>0.071000</DarkVoltage>
#     </TurbidityMeter>
#   </sensor>
# </Sensors>
# datcnv_date = Sep 28 2019 13:33:40, 7.26.7.129 [datcnv_vars = 15]
# datcnv_in = C:\DATA\092719_fcr_30.hex C:\DATA\SBE19plusV2_7809.xmlcon
# datcnv_skipover = 0
# datcnv_ox_hysteresis_correction = yes
# datcnv_ox_tau_correction = yes
# filter_date = Sep 28 2019 13:35:46, 7.26.7.129
# filter_in = C:\DATA\092719_fcr_30.cnv
# filter_low_pass_tc_A = 0.030
# filter_low_pass_tc_B = 0.150
# filter_low_pass_A_vars = sbeox0ML/L prdM prdE tv290C density00
# filter_low_pass_B_vars = depFM dz/dtM sbeox0PS specc c0uS/cm flECO-AFL ph orp par/sat/log turbWETntu0
# alignctd_date = Sep 28 2019 13:36:15, 7.26.7.129
# alignctd_in = C:\DATA\092719_fcr_30.cnv
# alignctd_adv = dz/dtM 1.000, sbeox0PS 1.000, specc 1.000, c0uS/cm 1.000, flECO-AFL 1.000, ph 1.000, orp 1.000, turbWETntu0 1.000                                                                                                   
# file_type = ascii
*END*
     -0.545      0.043     5.9963     96.506     27.018  25.103513     0.4351      7.218   153.1824 3.4130e+02     5.2588     -0.535     -0.776    21.2525   997.9441 0.0000e+00
     -0.545      0.102     5.9962     96.417     37.705  35.237093     0.4434      7.751   187.4288 3.4555e+02     5.3701     -0.532     -0.771    21.2465   997.9459 0.0000e+00
     -0.541      0.174     5.9970     96.214     39.675  37.382708     0.4731      8.199   184.3338 3.5232e+02     5.7453     -0.538     -0.780    21.2548   997.9433 0.0000e+00
     -0.506      0.244     5.9964     95.852     39.539  37.528076     0.7761      8.494   181.1520 3.5789e+02     9.6645     -0.527     -0.763    21.2400   997.9478 0.0000e+00
     -0.410      0.298     5.9842     95.434     39.333  37.502930     1.3250      8.666   179.4158 3.5941e+02    16.7398     -0.417     -0.603    21.2943   997.9439 0.0000e+00
     -0.276      0.329     5.9405     95.108     39.201  37.459759     1.6210      8.757   178.0534 3.5626e+02    20.5036     -0.262     -0.380    21.6542   997.8678 0.0000e+00
     -0.156      0.331     5.8750     94.964     39.087  37.387060     1.6591      8.802   176.6399 3.4591e+02    20.4992     -0.140     -0.204    22.1359   997.7591 0.0000e+00
     -0.069      0.301     5.8083     95.019     39.006  37.322202     1.8294      8.818   175.4029 3.3271e+02    17.0467     -0.058     -0.085    22.5050   997.6747 0.0000e+00
     -0.010      0.244     5.7567     95.224     38.994  37.310335     2.1359      8.818   174.4532 3.0816e+02    10.6481     -0.005     -0.007    22.7109   997.6268 0.0000e+00
      0.035      0.179     5.7267     95.535     38.999  37.307057     2.3055      8.811   173.6753 2.6628e+02     7.1383      0.035      0.052    22.7909   997.6082 0.0000e+00
      0.070      0.120     5.7129     95.934     38.989  37.282549     2.3191      8.806   172.8816 2.3376e+02     6.7918      0.072      0.104    22.8293   997.5994 0.0000e+00
      0.095      0.073     5.7170     96.325     38.992  37.267892     2.3081      8.801   172.1698 2.2066e+02     6.7206      0.098      0.143    22.8399   997.5970 0.0000e+00
      0.107      0.037     5.7305     96.586     39.000  37.256765     2.3118      8.796   171.6077 2.1695e+02     6.6383      0.110      0.160    22.8393   997.5972 0.0000e+00
      0.106      0.011     5.7495     96.711     39.043  37.274930     2.3379      8.786   171.0742 2.1578e+02     6.5510      0.107      0.155    22.8299   997.5994 0.0000e+00
      0.096     -0.007     5.7783     96.752     39.157  37.360545     2.3463      8.771   170.6237 2.0640e+02     6.5161      0.094      0.136    22.8073   997.6046 0.0000e+00
      0.086     -0.016     5.8087     96.691     39.277  37.466721     2.3177      8.754   170.2053 1.9963e+02     6.4787      0.084      0.122    22.7825   997.6104 0.0000e+00
      0.078     -0.018     5.8261     96.465     39.350  37.543081     2.2784      8.739   169.8018 2.0691e+02     6.3942      0.074      0.107    22.7640   997.6147 0.0000e+00
      0.076     -0.015     5.8346     96.010     39.384  37.585590     2.2617      8.724   170.1327 2.1205e+02     6.3460      0.073      0.105    22.7313   997.6223 0.0000e+00
      0.078     -0.009     5.8430     95.336     39.395  37.599850     2.2719      8.709   179.2827 2.1111e+02     6.3219      0.079      0.115    22.6912   997.6318 0.0000e+00
      0.077     -0.002     5.8416     94.605     39.390  37.588556     2.2710      8.692   189.3180 2.1663e+02     6.2671      0.077      0.112    22.6810   997.6342 0.0000e+00
      0.072      0.003     5.8277     93.998     39.390  37.575979     2.2597      8.671   183.6617 2.2271e+02     6.2739      0.070      0.101    22.6971   997.6304 0.0000e+00
      0.071      0.006     5.7994     93.588     39.401  37.574714     2.2648      8.652   175.0776 2.1971e+02     6.3382      0.067      0.097    22.7144   997.6264 0.0000e+00
      0.076      0.007     5.7533     93.378     39.408  37.573239     2.2724      8.639   171.9978 2.1602e+02     6.3561      0.073      0.105    22.7210   997.6249 0.0000e+00
      0.083      0.010     5.7056     93.261     39.400  37.558134     2.2735      8.629   169.8275 2.1177e+02     6.3271      0.083      0.120    22.7094   997.6277 0.0000e+00
      0.087      0.014     5.6705     93.091     39.365  37.519020     2.2785      8.620   168.7976 2.0911e+02     6.2164      0.088      0.127    22.6901   997.6321 0.0000e+00
      0.087      0.017     5.6465     92.842     39.332  37.481155     2.2983      8.608   168.4933 2.1431e+02     6.0662      0.084      0.122    22.6760   997.6354 0.0000e+00
      0.089      0.017     5.6371     92.495     39.337  37.481165     2.3219      8.596   174.1501 2.1186e+02     6.0522      0.085      0.124    22.6661   997.6378 0.0000e+00
      0.095      0.016     5.6363     91.976     39.382  37.519136     2.3387      8.583   180.3215 1.9868e+02     6.1447      0.091      0.132    22.6570   997.6399 0.0000e+00
      0.103      0.016     5.6256     91.288     39.427  37.559396     2.3366      8.570   176.2586 1.9202e+02     6.2675      0.102      0.148    22.6491   997.6418 0.0000e+00
      0.109      0.015     5.6112     90.510     39.460  37.587082     2.3141      8.561   179.1440 1.9496e+02     6.4220      0.109      0.158    22.6425   997.6434 0.0000e+00
      0.111      0.013     5.5942     89.700     39.480  37.599987     2.3084      8.553   194.8176 1.9590e+02     6.5381      0.109      0.158    22.6351   997.6450 0.0000e+00
      0.112      0.010     5.5628     88.811     39.478  37.588458     2.3289      8.546   203.4109 1.9300e+02     6.5911      0.110      0.159    22.6296   997.6464 0.0000e+00
      0.113      0.009     5.5198     87.786     39.474  37.574631     2.3444      8.538   203.8879 1.9407e+02     6.6036      0.111      0.161    22.6264   997.6471 0.0000e+00
      0.115      0.010     5.4708     86.659     39.465  37.559744     2.3313      8.529   203.7691 1.9202e+02     6.5897      0.112      0.163    22.6222   997.6481 0.0000e+00
      0.116      0.013     5.4243     85.472     39.444  37.535395     2.3097      8.520   203.2641 1.8419e+02     6.5548      0.114      0.165    22.6144   997.6500 0.0000e+00
      0.120      0.017     5.3747     84.348     39.445  37.534125     2.3175      8.515   202.4290 1.7921e+02     6.5421      0.117      0.169    22.6007   997.6532 0.0000e+00
      0.125      0.019     5.3115     83.528     39.457  37.544397     2.3391      8.510   201.7595 1.7532e+02     6.5341      0.122      0.177    22.5867   997.6564 0.0000e+00
      0.133      0.020     5.2447     83.222     39.446  37.532635     2.3370      8.502   201.3645 1.7034e+02     6.4910      0.130      0.189    22.5789   997.6583 0.0000e+00
      0.140      0.019     5.1709     83.500     39.434  37.518863     2.3170      8.492   201.0089 1.7008e+02     6.4796      0.137      0.199    22.5751   997.6592 0.0000e+00
      0.145      0.017     5.0967     84.281     39.422  37.504832     2.3060      8.479   200.6419 1.7488e+02     6.4956      0.142      0.207    22.5725   997.6599 0.0000e+00
      0.149      0.012     5.0427     85.381     39.412  37.489935     2.3174      8.463   200.1110 1.7828e+02     6.4547      0.146      0.212    22.5708   997.6603 0.0000e+00
      0.151      0.008     5.0225     86.616     39.399  37.465679     2.3332      8.449   199.4945 1.8243e+02     6.3448      0.149      0.215    22.5698   997.6605 0.0000e+00
      0.151      0.004     5.0416     87.852     39.351  37.401967     2.3319      8.437   199.0377 1.8527e+02     6.2486      0.149      0.216    22.5674   997.6610 0.0000e+00
      0.150      0.002     5.0936     88.946     39.320  37.354327     2.3275      8.427   198.2883 1.8003e+02     6.2418      0.147      0.213    22.5636   997.6619 0.0000e+00
      0.150      0.000     5.1653     89.791     39.315  37.333973     2.3239      8.420   194.6496 1.7197e+02     6.3604      0.147      0.213    22.5591   997.6630 0.0000e+00
      0.150      0.000     5.2430     90.371     39.277  37.282794     2.3232      8.415   191.2648 1.6696e+02     6.5034      0.148      0.215    22.5440   997.6665 0.0000e+00
      0.150      0.001     5.3243     90.706     39.252  37.243304     2.3273      8.411   193.3268 1.6322e+02     6.5286      0.147      0.214    22.5170   997.6727 0.0000e+00
      0.150      0.001     5.3958     90.830     39.259  37.237322     2.3208      8.407   195.6630 1.6429e+02     6.5017      0.146      0.212    22.4936   997.6781 0.0000e+00
      0.151      0.001     5.4484     90.831     39.242  37.210445     2.3149      8.400   195.4203 1.7604e+02     6.5059      0.149      0.216    22.4758   997.6822 0.0000e+00
      0.153      0.000     5.4853     90.793     39.209  37.172227     2.3341      8.391   194.8665 1.8474e+02     6.5794      0.151      0.219    22.4562   997.6868 0.0000e+00
      0.154     -0.001     5.5074     90.708     39.198  37.156067     2.3709      8.382   194.2160 1.7897e+02     6.7019      0.151      0.219    22.4358   997.6915 0.0000e+00
      0.153     -0.003     5.5147     90.541     39.188  37.141999     2.3859      8.374   193.8359 1.6863e+02     6.7415      0.151      0.219    22.4180   997.6957 0.0000e+00
      0.151     -0.003     5.5133     90.275     39.178  37.129076     2.3769      8.366   193.7125 1.6411e+02     6.6977      0.148      0.215    22.4056   997.6985 0.0000e+00
      0.148     -0.002     5.5130     89.879     39.180  37.126757     2.3751      8.360   193.3255 1.7088e+02     6.6957      0.144      0.210    22.3963   997.7005 0.0000e+00
      0.147      0.002     5.5098     89.383     39.172  37.113957     2.3816      8.355   192.7709 1.7983e+02     6.7517      0.144      0.209    22.3889   997.7023 0.0000e+00
      0.147      0.006     5.4994     88.848     39.166  37.101243     2.3865      8.350   192.4265 1.7765e+02     6.7843      0.143      0.208    22.3840   997.7034 0.0000e+00
      0.149      0.009     5.4855     88.316     39.171  37.099975     2.3905      8.344   191.9150 1.6969e+02     6.7622      0.144      0.209    22.3807   997.7042 0.0000e+00
      0.155      0.010     5.4612     87.873     39.174  37.098622     2.3868      8.338   191.2333 1.6334e+02     6.6157      0.151      0.219    22.3754   997.7054 0.0000e+00
      0.161      0.010     5.4294     87.580     39.162  37.084878     2.3773      8.332   190.8091 1.5819e+02     6.4221      0.160      0.232    22.3669   997.7075 0.0000e+00
      0.163      0.008     5.3987     87.433     39.138  37.060737     2.3791      8.324   190.4857 1.5669e+02     6.3543      0.161      0.235    22.3581   997.7094 0.0000e+00
      0.162      0.005     5.3643     87.410     39.139  37.060622     2.3916      8.314   189.9899 1.5764e+02     6.3543      0.159      0.231    22.3502   997.7112 0.0000e+00
      0.162      0.001     5.3362     87.431     39.165  37.083493     2.4068      8.303   189.4603 1.5601e+02     6.3883      0.159      0.230    22.3446   997.7125 0.0000e+00
      0.162     -0.001     5.3199     87.331     39.166  37.083380     2.4234      8.291   189.2442 1.5223e+02     6.4708      0.160      0.232    22.3414   997.7133 0.0000e+00
