* Sea-Bird SBE19plus  Data File:
* FileName = C:\DATA\100719_bvr50_0002.hex
* Software version 2.8.0.119 SB_Terminal.dll
* Temperature SN = 7809
* Conductivity SN = 7809
* System UpLoad Time = Oct 07 2019 15:42:33
* <ApplicationData>
* <Seaterm232>
* <SoftwareVersion>2.8.0.119</SoftwareVersion>
* <BuildDate>07-Nov-2018</BuildDate>
* </Seaterm232>
* </ApplicationData>
* cast   2 07 Oct 2019 13:37:22 samples 1338 to 2456, avg = 1, stop = mag switch
# nquan = 16
# nvalues = 963                         
# units = specified
# name 0 = depFM: Depth [fresh water, m]
# name 1 = dz/dtM: Descent Rate [m/s]
# name 2 = sbeox0ML/L: Oxygen, SBE 43 [ml/l]
# name 3 = sbeox0PS: Oxygen, SBE 43 [% saturation]
# name 4 = specc: Specific Conductance [uS/cm]
# name 5 = c0uS/cm: Conductivity [uS/cm]
# name 6 = flECO-AFL: Fluorescence, WET Labs ECO-AFL/FL [mg/m^3]
# name 7 = ph: pH
# name 8 = orp: Oxidation Reduction Potential [mV]
# name 9 = par/sat/log: PAR/Logarithmic, Satlantic
# name 10 = turbWETntu0: Turbidity, WET Labs ECO [NTU]
# name 11 = prdM: Pressure, Strain Gauge [db]
# name 12 = prdE: Pressure, Strain Gauge [psi]
# name 13 = tv290C: Temperature [ITS-90, deg C]
# name 14 = density00: Density [density, kg/m^3]
# name 15 = flag:  0.000e+00
# span 0 =     -0.469,      9.956       
# span 1 =     -0.010,      0.165       
# span 2 =     0.0078,     6.0889       
# span 3 =      0.190,     98.950       
# span 4 =     28.256,    246.984       
# span 5 =  26.382245, 168.942245       
# span 6 =     1.4560,    15.6331       
# span 7 =      6.303,      8.793       
# span 8 =  -108.9759,   323.4426       
# span 9 = 1.2354e-01, 1.0566e+03       
# span 10 =     1.3549,     5.8721      
# span 11 =     -0.474,      9.764      
# span 12 =     -0.688,     14.161      
# span 13 =     9.0854,    22.2550      
# span 14 =   997.7267,   999.9097      
# span 15 = 0.0000e+00, 0.0000e+00      
# interval = seconds: 0.25
# start_time = Oct 07 2019 13:37:22 [Instrument's time stamp, header]
# bad_flag = -9.990e-29
# <Sensors count="9" >
#   <sensor Channel="1" >
#     <!-- Count, Temperature -->
#     <TemperatureSensor SensorID="58" >
#       <SerialNumber>7809</SerialNumber>
#       <CalibrationDate>24-Mar-19</CalibrationDate>
#       <A0>1.21792325e-003</A0>
#       <A1>2.81669265e-004</A1>
#       <A2>-1.60333336e-006</A2>
#       <A3>1.98414625e-007</A3>
#       <Slope>1.00000000</Slope>
#       <Offset>0.0000</Offset>
#     </TemperatureSensor>
#   </sensor>
#   <sensor Channel="2" >
#     <!-- Frequency 0, Conductivity -->
#     <ConductivitySensor SensorID="3" >
#       <SerialNumber>7809</SerialNumber>
#       <CalibrationDate>24-Mar-19</CalibrationDate>
#       <UseG_J>1</UseG_J>
#       <!-- Cell const and series R are applicable only for wide range sensors. -->
#       <SeriesR>0.0000</SeriesR>
#       <CellConst>2000.0000</CellConst>
#       <ConductivityType>0</ConductivityType>
#       <Coefficients equation="0" >
#         <A>0.00000000e+000</A>
#         <B>0.00000000e+000</B>
#         <C>0.00000000e+000</C>
#         <D>0.00000000e+000</D>
#         <M>0.0</M>
#         <CPcor>-9.57000000e-008</CPcor>
#       </Coefficients>
#       <Coefficients equation="1" >
#         <G>-1.00589325e+000</G>
#         <H>1.26816302e-001</H>
#         <I>-1.51560448e-004</I>
#         <J>2.67137274e-005</J>
#         <CPcor>-9.57000000e-008</CPcor>
#         <CTcor>3.2500e-006</CTcor>
#         <!-- WBOTC not applicable unless ConductivityType = 1. -->
#         <WBOTC>0.00000000e+000</WBOTC>
#       </Coefficients>
#       <Slope>1.00000000</Slope>
#       <Offset>0.00000</Offset>
#     </ConductivitySensor>
#   </sensor>
#   <sensor Channel="3" >
#     <!-- Count, Pressure, Strain Gauge -->
#     <PressureSensor SensorID="46" >
#       <SerialNumber>7809</SerialNumber>
#       <CalibrationDate>11-Mar-19</CalibrationDate>
#       <PA0>4.56561833e-002</PA0>
#       <PA1>4.85095118e-004</PA1>
#       <PA2>-2.88327090e-012</PA2>
#       <PTEMPA0>-5.48784562e+001</PTEMPA0>
#       <PTEMPA1>5.53756816e+001</PTEMPA1>
#       <PTEMPA2>-5.86727098e-001</PTEMPA2>
#       <PTCA0>5.25246745e+005</PTCA0>
#       <PTCA1>1.22304214e+001</PTCA1>
#       <PTCA2>-3.56745036e-001</PTCA2>
#       <PTCB0>2.51668750e+001</PTCB0>
#       <PTCB1>3.75000000e-004</PTCB1>
#       <PTCB2>0.00000000e+000</PTCB2>
#       <Offset>0.000000</Offset>
#     </PressureSensor>
#   </sensor>
#   <sensor Channel="4" >
#     <!-- A/D voltage 0, Oxygen, SBE 43 -->
#     <OxygenSensor SensorID="38" >
#       <SerialNumber>0434</SerialNumber>
#       <CalibrationDate>13-Apr-19</CalibrationDate>
#       <Use2007Equation>1</Use2007Equation>
#       <CalibrationCoefficients equation="0" >
#         <!-- Coefficients for Owens-Millard equation. -->
#         <Boc>0.0000</Boc>
#         <Soc>0.0000e+000</Soc>
#         <offset>0.0000</offset>
#         <Pcor>0.00e+000</Pcor>
#         <Tcor>0.0000</Tcor>
#         <Tau>0.0</Tau>
#       </CalibrationCoefficients>
#       <CalibrationCoefficients equation="1" >
#         <!-- Coefficients for Sea-Bird equation - SBE calibration in 2007 and later. -->
#         <Soc>4.2007e-001</Soc>
#         <offset>-0.6109</offset>
#         <A>-4.3656e-003</A>
#         <B> 1.7017e-004</B>
#         <C>-2.5341e-006</C>
#         <D0> 2.5826e+000</D0>
#         <D1> 1.92634e-004</D1>
#         <D2>-4.64803e-002</D2>
#         <E> 3.6000e-002</E>
#         <Tau20> 1.1800</Tau20>
#         <H1>-3.3000e-002</H1>
#         <H2> 5.0000e+003</H2>
#         <H3> 1.4500e+003</H3>
#       </CalibrationCoefficients>
#     </OxygenSensor>
#   </sensor>
#   <sensor Channel="5" >
#     <!-- A/D voltage 1, PAR/Logarithmic, Satlantic -->
#     <PARLog_SatlanticSensor SensorID="76" >
#       <SerialNumber>1122</SerialNumber>
#       <CalibrationDate>08-May-2019</CalibrationDate>
#       <a0>9.7456e-001</a0>
#       <a1>8.1640e-001</a1>
#       <Im>1.3589e+000</Im>
#       <Multiplier>1.0000e+000</Multiplier>
#     </PARLog_SatlanticSensor>
#   </sensor>
#   <sensor Channel="6" >
#     <!-- A/D voltage 2, pH -->
#     <pH_Sensor SensorID="43" >
#       <SerialNumber>0363</SerialNumber>
#       <CalibrationDate>15-Apr-19</CalibrationDate>
#       <Slope>4.5952</Slope>
#       <Offset>2.5370</Offset>
#     </pH_Sensor>
#   </sensor>
#   <sensor Channel="7" >
#     <!-- A/D voltage 3, Oxidation Reduction Potential -->
#     <OxidationReductionPotentialSensor SensorID="41" >
#       <SerialNumber>0363</SerialNumber>
#       <CalibrationDate>15-Apr-19</CalibrationDate>
#       <B>2.499480</B>
#       <M>-0.496195</M>
#       <Offset>0.0</Offset>
#     </OxidationReductionPotentialSensor>
#   </sensor>
#   <sensor Channel="8" >
#     <!-- A/D voltage 4, Fluorometer, WET Labs ECO-AFL/FL -->
#     <FluoroWetlabECO_AFL_FL_Sensor SensorID="20" >
#       <SerialNumber>FLNTURT-2496</SerialNumber>
#       <CalibrationDate>08-May-2019</CalibrationDate>
#       <ScaleFactor>5.00000000e+001</ScaleFactor>
#       <!-- Dark output -->
#       <Vblank>0.0550</Vblank>
#     </FluoroWetlabECO_AFL_FL_Sensor>
#   </sensor>
#   <sensor Channel="9" >
#     <!-- A/D voltage 5, Turbidity Meter, WET Labs, ECO-NTU -->
#     <TurbidityMeter SensorID="67" >
#       <SerialNumber>FLNTURT-2496</SerialNumber>
#       <CalibrationDate>08-May-2019</CalibrationDate>
#       <ScaleFactor>189.000000</ScaleFactor>
#       <!-- Dark output -->
#       <DarkVoltage>0.071000</DarkVoltage>
#     </TurbidityMeter>
#   </sensor>
# </Sensors>
# datcnv_date = Oct 07 2019 15:46:11, 7.26.7.129 [datcnv_vars = 15]
# datcnv_in = C:\DATA\100719_bvr_sedtrap.hex C:\DATA\SBE19plusV2_7809.xmlcon
# datcnv_skipover = 0
# datcnv_ox_hysteresis_correction = yes
# datcnv_ox_tau_correction = yes
# filter_date = Oct 07 2019 15:46:50, 7.26.7.129
# filter_in = C:\DATA\100719_bvr_sedtrap.cnv
# filter_low_pass_tc_A = 0.030
# filter_low_pass_tc_B = 0.150
# filter_low_pass_A_vars = sbeox0ML/L prdM prdE tv290C density00
# filter_low_pass_B_vars = depFM dz/dtM sbeox0PS specc c0uS/cm flECO-AFL ph orp par/sat/log turbWETntu0
# alignctd_date = Oct 07 2019 15:47:16, 7.26.7.129
# alignctd_in = C:\DATA\100719_bvr_sedtrap.cnv
# alignctd_adv = dz/dtM 1.000, sbeox0PS 1.000, specc 1.000, c0uS/cm 1.000, flECO-AFL 1.000, ph 1.000, orp 1.000, turbWETntu0 1.000                                                                                                   
# file_type = ascii
*END*
     -0.469      0.092     5.7912     95.279     28.256  26.469520     1.9788      8.542   323.4426 9.7412e+02     5.7343     -0.474     -0.688    22.2550   997.7267 0.0000e+00
     -0.428      0.116     5.8065     95.464     28.340  26.521862     2.0275      8.617   308.3047 9.9982e+02     5.8721     -0.421     -0.611    22.1063   997.7610 0.0000e+00
     -0.380      0.137     5.8216     95.713     28.386  26.547159     2.0464      8.672   290.6503 1.0298e+03     5.7896     -0.366     -0.531    21.9744   997.7913 0.0000e+00
     -0.342      0.155     5.8317     96.044     28.376  26.521601     2.3016      8.718   278.8803 1.0503e+03     4.7369     -0.334     -0.483    21.8949   997.8094 0.0000e+00
     -0.311      0.165     5.8466     96.479     28.331  26.466591     2.7808      8.739   274.2320 1.0566e+03     2.8115     -0.308     -0.446    21.8252   997.8252 0.0000e+00
     -0.272      0.165     5.8635     97.004     28.323  26.452976     3.0376      8.736   269.8101 1.0429e+03     1.7477     -0.272     -0.394    21.7833   997.8349 0.0000e+00
     -0.224      0.159     5.8814     97.552     28.351  26.483860     3.0491      8.741   264.7360 1.0029e+03     1.6417     -0.221     -0.321    21.7524   997.8421 0.0000e+00
     -0.171      0.146     5.9042     98.042     28.383  26.522802     3.0580      8.758   261.4935 9.4201e+02     1.6604     -0.167     -0.242    21.7285   997.8477 0.0000e+00
     -0.125      0.126     5.9339     98.453     28.399  26.543189     3.0849      8.776   259.6871 8.8509e+02     1.6782     -0.117     -0.169    21.7015   997.8539 0.0000e+00
     -0.094      0.098     5.9698     98.773     28.393  26.540054     3.1053      8.787   258.2957 8.5189e+02     1.6280     -0.087     -0.127    21.6853   997.8577 0.0000e+00
     -0.077      0.066     6.0044     98.950     28.402  26.548334     3.1140      8.792   257.2316 8.3987e+02     1.5775     -0.073     -0.105    21.6984   997.8549 0.0000e+00
     -0.071      0.036     6.0316     98.949     28.439  26.579860     3.1116      8.793   260.6734 8.3696e+02     1.5918     -0.068     -0.098    21.7232   997.8493 0.0000e+00
     -0.071      0.013     6.0560     98.833     28.473  26.604030     3.1111      8.788   270.2270 8.3564e+02     1.6366     -0.068     -0.099    21.7292   997.8480 0.0000e+00
     -0.073     -0.001     6.0769     98.642     28.531  26.650227     3.1167      8.779   277.6697 8.3614e+02     1.6606     -0.071     -0.103    21.7300   997.8478 0.0000e+00
     -0.077     -0.005     6.0889     98.219     28.652  26.757771     3.1101      8.765   279.1643 8.3885e+02     1.6530     -0.075     -0.108    21.7341   997.8468 0.0000e+00
     -0.082     -0.002     6.0878     97.343     28.796  26.889255     3.0826      8.752   278.4895 8.3932e+02     1.6427     -0.081     -0.117    21.7286   997.8480 0.0000e+00
     -0.084      0.004     6.0791     95.702     28.954  27.034587     3.0535      8.741   277.6840 8.3282e+02     1.6347     -0.085     -0.124    21.7125   997.8516 0.0000e+00
     -0.082      0.011     6.0752     92.917     29.116  27.182676     3.0440      8.729   276.9101 8.1487e+02     1.6219     -0.083     -0.119    21.6964   997.8553 0.0000e+00
     -0.076      0.017     6.0543     88.962     29.227  27.284036     3.0554      8.721   275.5857 7.8396e+02     1.6194     -0.077     -0.111    21.6875   997.8573 0.0000e+00
     -0.067      0.019     6.0058     84.249     29.254  27.308481     3.0954      8.717   273.9746 7.4980e+02     1.5711     -0.065     -0.096    21.6831   997.8584 0.0000e+00
     -0.059      0.019     5.9180     79.368     29.234  27.287903     3.1464      8.715   272.7447 7.2257e+02     1.4641     -0.056     -0.082    21.6804   997.8590 0.0000e+00
     -0.054      0.014     5.7473     74.856     29.237  27.289001     3.1691      8.711   271.7291 7.0596e+02     1.4396     -0.051     -0.075    21.6760   997.8601 0.0000e+00
     -0.051      0.008     5.4937     71.131     29.273  27.321750     3.1703      8.702   270.8154 7.0209e+02     1.4726     -0.049     -0.071    21.6710   997.8612 0.0000e+00
     -0.051      0.001     5.1900     68.477     29.323  27.366652     3.1696      8.692   269.9566 7.0591e+02     1.4369     -0.050     -0.072    21.6687   997.8618 0.0000e+00
     -0.053     -0.005     4.8782     66.939     29.345  27.387794     3.1691      8.683   269.0026 7.1085e+02     1.4338     -0.051     -0.074    21.6667   997.8622 0.0000e+00
     -0.056     -0.008     4.5919     66.281     29.345  27.387052     3.1735      8.677   268.0568 7.1708e+02     1.5325     -0.054     -0.079    21.6640   997.8628 0.0000e+00
     -0.060     -0.008     4.3563     66.193     29.382  27.421118     3.1792      8.669   267.2111 7.2458e+02     1.6147     -0.059     -0.085    21.6606   997.8636 0.0000e+00
     -0.064     -0.007     4.1909     66.400     29.449  27.482463     3.1854      8.659   266.4350 7.2816e+02     1.6410     -0.064     -0.092    21.6580   997.8642 0.0000e+00
     -0.066     -0.004     4.1035     66.670     29.464  27.494338     3.1889      8.651   265.8149 7.2459e+02     1.6543     -0.065     -0.095    21.6582   997.8641 0.0000e+00
     -0.065      0.000     4.0697     66.840     29.404  27.437806     3.1859      8.646   265.1330 7.1585e+02     1.6444     -0.065     -0.094    21.6594   997.8638 0.0000e+00
     -0.063      0.002     4.0697     66.812     29.333  27.369930     3.1849      8.644   264.2131 7.0503e+02     1.6190     -0.063     -0.091    21.6579   997.8642 0.0000e+00
     -0.061      0.002     4.0887     66.572     29.267  27.308084     3.1844      8.643   263.2962 6.9590e+02     1.6093     -0.059     -0.087    21.6552   997.8649 0.0000e+00
     -0.060      0.001     4.1078     66.164     29.216  27.261030     3.1721      8.642   262.4786 6.9063e+02     1.5929     -0.059     -0.085    21.6532   997.8653 0.0000e+00
     -0.060     -0.001     4.1216     65.653     29.198  27.245109     3.1397      8.641   261.6415 6.8816e+02     1.5851     -0.058     -0.084    21.6511   997.8658 0.0000e+00
     -0.062     -0.004     4.1197     65.124     29.196  27.242476     3.1132      8.639   260.8325 6.8628e+02     1.6127     -0.061     -0.088    21.6488   997.8662 0.0000e+00
     -0.064     -0.005     4.1039     64.721     29.182  27.229189     3.1120      8.639   260.0960 6.8406e+02     1.6318     -0.063     -0.091    21.6480   997.8664 0.0000e+00
     -0.065     -0.005     4.0772     64.614     29.163  27.211340     3.1336      8.634   259.6198 6.8217e+02     1.6528     -0.064     -0.093    21.6489   997.8662 0.0000e+00
     -0.068     -0.003     4.0445     64.895     29.168  27.217003     3.1576      8.624   259.5482 6.8115e+02     1.6693     -0.068     -0.098    21.6495   997.8660 0.0000e+00
     -0.070      0.000     4.0086     65.524     29.186  27.234212     3.1596      8.613   259.4026 6.7998e+02     1.6355     -0.070     -0.101    21.6492   997.8661 0.0000e+00
     -0.070      0.003     3.9793     66.341     29.181  27.229079     3.1665      8.599   258.9779 6.7672e+02     1.6043     -0.070     -0.101    21.6490   997.8661 0.0000e+00
     -0.068      0.004     3.9706     67.176     29.169  27.218385     3.2148      8.588   258.3713 6.6980e+02     1.6202     -0.068     -0.097    21.6493   997.8660 0.0000e+00
     -0.063      0.004     3.9887     67.917     29.182  27.231802     3.2762      8.579   257.8330 6.6133e+02     1.6310     -0.062     -0.090    21.6495   997.8660 0.0000e+00
     -0.059      0.003     4.0316     68.480     29.217  27.264422     3.2930      8.569   257.5456 6.5792e+02     1.6028     -0.057     -0.081    21.6501   997.8659 0.0000e+00
     -0.058      0.000     4.0859     68.797     29.249  27.295566     3.2792      8.558   257.3051 6.6165e+02     1.5752     -0.056     -0.081    21.6509   997.8657 0.0000e+00
     -0.062     -0.003     4.1391     68.839     29.244  27.291150     3.2740      8.548   256.9901 6.6608e+02     1.5918     -0.061     -0.088    21.6514   997.8656 0.0000e+00
     -0.066     -0.007     4.1867     68.637     29.225  27.274476     3.2906      8.540   256.5761 6.6683e+02     1.5738     -0.066     -0.095    21.6521   997.8654 0.0000e+00
     -0.067     -0.009     4.2229     68.276     29.235  27.284290     3.3244      8.534   256.1716 6.6647e+02     1.4566     -0.067     -0.097    21.6531   997.8652 0.0000e+00
     -0.068     -0.009     4.2431     67.867     29.234  27.282928     3.3444      8.527   255.6275 6.6759e+02     1.3549     -0.066     -0.096    21.6544   997.8649 0.0000e+00
     -0.070     -0.008     4.2448     67.517     29.207  27.258004     3.3502      8.521   254.9875 6.6958e+02     1.3591     -0.068     -0.099    21.6562   997.8645 0.0000e+00
     -0.073     -0.006     4.2300     67.219     29.185  27.236704     3.3596      8.515   254.5419 6.7127e+02     1.4745     -0.071     -0.103    21.6575   997.8642 0.0000e+00
     -0.076     -0.003     4.2061     66.939     29.163  27.215732     3.3717      8.509   254.1969 6.7199e+02     1.6036     -0.075     -0.109    21.6581   997.8641 0.0000e+00
     -0.078     -0.001     4.1767     66.681     29.141  27.194760     3.3749      8.503   253.9142 6.7103e+02     1.6424     -0.078     -0.113    21.6584   997.8640 0.0000e+00
     -0.077      0.002     4.1565     66.448     29.119  27.173462     3.3633      8.497   253.5330 6.6818e+02     1.6484     -0.076     -0.111    21.6582   997.8640 0.0000e+00
     -0.074      0.005     4.1398     66.264     29.092  27.148547     3.3783      8.492   252.9434 6.6443e+02     1.6755     -0.072     -0.105    21.6575   997.8642 0.0000e+00
     -0.071      0.007     4.1211     66.105     29.092  27.147277     3.4185      8.488   252.5501 6.6152e+02     1.6760     -0.069     -0.099    21.6565   997.8644 0.0000e+00
     -0.069      0.007     4.1068     65.930     29.103  27.158109     3.4335      8.485   252.6496 6.5983e+02     1.6207     -0.067     -0.097    21.6554   997.8647 0.0000e+00
     -0.068      0.006     4.0905     65.779     29.098  27.152636     3.4292      8.480   253.0279 6.5830e+02     1.5638     -0.067     -0.097    21.6545   997.8649 0.0000e+00
     -0.067      0.004     4.0799     65.685     29.089  27.144551     3.4354      8.472   253.3384 6.5682e+02     1.5462     -0.066     -0.095    21.6539   997.8650 0.0000e+00
     -0.066      0.003     4.0725     65.644     29.066  27.123787     3.4651      8.462   253.3061 6.5584e+02     1.5711     -0.064     -0.093    21.6532   997.8651 0.0000e+00
     -0.065      0.003     4.0595     65.660     29.031  27.091910     3.4848      8.457   252.6374 6.5448e+02     1.6027     -0.063     -0.092    21.6526   997.8653 0.0000e+00
     -0.064      0.002     4.0494     65.723     29.014  27.076347     3.4828      8.457   251.7061 6.5257e+02     1.6007     -0.064     -0.093    21.6523   997.8654 0.0000e+00
     -0.063      0.000     4.0446     65.795     28.999  27.062503     3.5194      8.462   251.2523 6.5158e+02     1.6121     -0.063     -0.090    21.6528   997.8653 0.0000e+00
     -0.063     -0.002     4.0411     65.829     28.986  27.051411     3.5900      8.464   251.1077 6.5208e+02     1.6419     -0.062     -0.089    21.6541   997.8650 0.0000e+00
