* Sea-Bird SBE19plus  Data File:
* FileName = C:\DATA\100818_fcr_0004.hex
* Software version 2.6.3.104
* Temperature SN = 7809
* Conductivity SN = 7809
* System UpLoad Time = Oct 08 2018 14:57:46
* <ApplicationData>
* <Seaterm232>
* <SoftwareVersion>2.6.3.104</SoftwareVersion>
* <BuildDate>30-Jun-2017</BuildDate>
* </Seaterm232>
* </ApplicationData>
* <InstrumentState>
* <HardwareData DeviceType='SBE19plus' SerialNumber='01907809'>
*
*    <Manufacturer>Sea-Bird Electronics, Inc.</Manufacturer>
*
*    <FirmwareVersion>3.1.8</FirmwareVersion>
*
*    <FirmwareDate>Mar  9 2016 16:22:29</FirmwareDate>
*
*    <CommandSetVersion>1.4</CommandSetVersion>
*
*    <PCBAssembly PCBSerialNum='120721' AssemblyNum='41054J'/>
*
*    <PCBAssembly PCBSerialNum='120715' AssemblyNum='41967A'/>
*
*    <PCBAssembly PCBSerialNum='116699' AssemblyNum='41606'/>
*
*    <PCBAssembly PCBSerialNum='120719' AssemblyNum='41059D'/>
*
*    <MfgDate>28-Apr-2017</MfgDate>
*
*    <InternalSensors>
*
*       <Sensor id='Main Temperature'>
*
*          <type>temperature0</type>
*
*          <SerialNumber>01907809</SerialNumber>
*
*       </Sensor>
*
*       <Sensor id='Main Conductivity'>
*
*          <type>conductivity-0</type>
*
*          <SerialNumber>01907809</SerialNumber>
*
*       </Sensor>
*
*       <Sensor id='Main Pressure'>
*
*          <type>strain-0</type>
*
*          <SerialNumber>10586018</SerialNumber>
*
*       </Sensor>
*
*    </InternalSensors>
*
*    <ExternalSensors>
*
*       <Sensor id='volt 0'>
*
*          <type>pH</type>
*
*          <SerialNumber>27-0363</SerialNumber>
*
*       </Sensor>
*
*       <Sensor id='volt 1'>
*
*          <type>ORP</type>
*
*          <SerialNumber>27-0363</SerialNumber>
*
*       </Sensor>
*
*       <Sensor id='volt 2'>
*
*          <type>OXY</type>
*
*          <SerialNumber>43-0434</SerialNumber>
*
*       </Sensor>
*
*       <Sensor id='volt 3'>
*
*          <type>PAR</type>
*
*          <SerialNumber>1122</SerialNumber>
*
*       </Sensor>
*
*       <Sensor id='volt 4'>
*
*          <type>ECO AFL/FL</type>
*
*          <SerialNumber>FLNTURT-2496</SerialNumber>
*
*       </Sensor>
*
*       <Sensor id='volt 5'>
*
*          <type>ECO-NTU</type>
*
*          <SerialNumber>FLNTURT-2496</SerialNumber>
*
*       </Sensor>
*
*       <Sensor id='serial'>
*
*          <type>not assigned</type>
*
*          <SerialNumber>not assigned</SerialNumber>
*
*       </Sensor>
*
*    </ExternalSensors>
*
* </HardwareData>
* <StatusData DeviceType='SBE19plus' SerialNumber='01907809'>
*
*    <DateTime>2018-10-08T18:56:32</DateTime>
*
*    <LoggingState>not logging</LoggingState>
*
*    <EventSummary numEvents='0'/>
*
*    <Power>
*
*       <vMain>12.4</vMain>
*
*       <vLith>8.8</vLith>
*
*       <iMain>63.2</iMain>
*
*       <iPump>50.0</iPump>
*
*       <iExt01>13.7</iExt01>
*
*       <iExt2345>43.2</iExt2345>
*
*    </Power>
*
*    <MemorySummary>
*
*       <Bytes>65366</Bytes>
*
*       <Samples>2842</Samples>
*
*       <SamplesFree>2857946</SamplesFree>
*
*       <SampleLength>23</SampleLength>
*
*       <Profiles>5</Profiles>
*
*    </MemorySummary>
*
* </StatusData>
* <ConfigurationData DeviceType='SBE19plus' SerialNumber='01907809'>
*
*    <ProfileMode>
*
*       <ScansToAverage>1</ScansToAverage>
*
*       <MinimumCondFreq>5</MinimumCondFreq>
*
*       <PumpDelay>45</PumpDelay>
*
*       <AutoRun>no</AutoRun>
*
*       <IgnoreSwitch>no</IgnoreSwitch>
*
*    </ProfileMode>
*
*    <Battery>
*
*       <Type>alkaline</Type>
*
*       <CutOff>7.5</CutOff>
*
*    </Battery>
*
*    <DataChannels>
*
*       <ExtVolt0>yes</ExtVolt0>
*
*       <ExtVolt1>yes</ExtVolt1>
*
*       <ExtVolt2>yes</ExtVolt2>
*
*       <ExtVolt3>yes</ExtVolt3>
*
*       <ExtVolt4>yes</ExtVolt4>
*
*       <ExtVolt5>yes</ExtVolt5>
*
*       <SBE38>no</SBE38>
*
*       <WETLABS>no</WETLABS>
*
*       <OPTODE>no</OPTODE>
*
*       <SBE63>no</SBE63>
*
*       <SeaFET>no</SeaFET>
*
*       <GTD>no</GTD>
*
*    </DataChannels>
*
*    <EchoCharacters>yes</EchoCharacters>
*
*    <OutputExecutedTag>yes</OutputExecutedTag>
*
*    <OutputFormat>raw HEX</OutputFormat>
*
* </ConfigurationData>
* <CalibrationCoefficients DeviceType='SBE19plus' SerialNumber='01907809'>
*
*    <Calibration format='TEMP1' id='Main Temperature'>
*
*       <SerialNum>01907809</SerialNum>
*
*       <CalDate>09-Mar-18</CalDate>
*
*       <TA0>1.210932e-03</TA0>
*
*       <TA1>2.843566e-04</TA1>
*
*       <TA2>-1.945074e-06</TA2>
*
*       <TA3>2.128067e-07</TA3>
*
*       <TOFFSET>0.000000e+00</TOFFSET>
*
*    </Calibration>
*
*    <Calibration format='WBCOND0' id='Main Conductivity'>
*
*       <SerialNum>01907809</SerialNum>
*
*       <CalDate>09-Mar-18</CalDate>
*
*       <G>-1.006721e+00</G>
*
*       <H>1.269065e-01</H>
*
*       <I>-1.405844e-04</I>
*
*       <J>2.478371e-05</J>
*
*       <CPCOR>-9.570000e-08</CPCOR>
*
*       <CTCOR>3.250000e-06</CTCOR>
*
*       <CSLOPE>1.000000e+00</CSLOPE>
*
*    </Calibration>
*
*    <Calibration format='STRAIN0' id='Main Pressure'>
*
*       <SerialNum>10586018</SerialNum>
*
*       <CalDate>07-Mar-18</CalDate>
*
*       <PA0>-4.081764e-02</PA0>
*
*       <PA1>4.851884e-04</PA1>
*
*       <PA2>-3.511682e-12</PA2>
*
*       <PTCA0>5.252134e+05</PTCA0>
*
*       <PTCA1>1.795324e+00</PTCA1>
*
*       <PTCA2>-2.843535e-01</PTCA2>
*
*       <PTCB0>2.516687e+01</PTCB0>
*
*       <PTCB1>3.750000e-04</PTCB1>
*
*       <PTCB2>0.000000e+00</PTCB2>
*
*       <PTEMPA0>-5.378069e+01</PTEMPA0>
*
*       <PTEMPA1>5.366207e+01</PTEMPA1>
*
*       <PTEMPA2>4.872143e-02</PTEMPA2>
*
*       <POFFSET>5.000000e-01</POFFSET>
*
*       <PRANGE>1.600000e+02</PRANGE>
*
*    </Calibration>
*
*    <Calibration format='VOLT0' id='Volt 0'>
*
*       <OFFSET>-4.920000e-02</OFFSET>
*
*       <SLOPE>1.248122e+00</SLOPE>
*
*    </Calibration>
*
*    <Calibration format='VOLT0' id='Volt 1'>
*
*       <OFFSET>-4.784000e-02</OFFSET>
*
*       <SLOPE>1.248871e+00</SLOPE>
*
*    </Calibration>
*
*    <Calibration format='VOLT0' id='Volt 2'>
*
*       <OFFSET>-4.864632e-02</OFFSET>
*
*       <SLOPE>1.248714e+00</SLOPE>
*
*    </Calibration>
*
*    <Calibration format='VOLT0' id='Volt 3'>
*
*       <OFFSET>-4.743790e-02</OFFSET>
*
*       <SLOPE>1.248571e+00</SLOPE>
*
*    </Calibration>
*
*    <Calibration format='VOLT0' id='Volt 4'>
*
*       <OFFSET>-4.671263e-02</OFFSET>
*
*       <SLOPE>1.248951e+00</SLOPE>
*
*    </Calibration>
*
*    <Calibration format='VOLT0' id='Volt 5'>
*
*       <OFFSET>-4.871053e-02</OFFSET>
*
*       <SLOPE>1.249136e+00</SLOPE>
*
*    </Calibration>
*
*    <Calibration format='FREQ0' id='external frequency channel'>
*
*       <EXTFREQSF>1.000014e+00</EXTFREQSF>
*
*    </Calibration>
*
* </CalibrationCoefficients>
* <EventCounters DeviceType='SBE19plus' SerialNumber='01907809'>
*
*    <EventSummary numEvents='0'/>
*
* </EventCounters></InstrumentState>
* <Headers>
*
* cast   4 08 Oct 2018 15:07:43 samples 1515 to 2114, avg = 1, stop = mag switch
*
# nquan = 17
# nvalues = 520                         
# units = specified
# name 0 = depFM: Depth [fresh water, m]
# name 1 = tv290C: Temperature [ITS-90, deg C]
# name 2 = sbeox0Mg/L: Oxygen, SBE 43 [mg/l]
# name 3 = sbeox0PS: Oxygen, SBE 43 [% saturation]
# name 4 = c0uS/cm: Conductivity [uS/cm]
# name 5 = specc: Specific Conductance [uS/cm]
# name 6 = ph: pH
# name 7 = orp: Oxidation Reduction Potential [mV]
# name 8 = flECO-AFL: Fluorescence, WET Labs ECO-AFL/FL [mg/m^3]
# name 9 = turbWETntu0: Turbidity, WET Labs ECO [NTU]
# name 10 = sal00: Salinity, Practical [PSU]
# name 11 = dz/dtM: Descent Rate [m/s]
# name 12 = prdM: Pressure, Strain Gauge [db]
# name 13 = prdE: Pressure, Strain Gauge [psi]
# name 14 = scan: Scan Count
# name 15 = par/sat/log: PAR/Logarithmic, Satlantic
# name 16 = flag:  0.000e+00
# span 0 =     -0.466,      7.607       
# span 1 =    14.0114,    23.6111       
# span 2 =     0.0760,     9.5064       
# span 3 =      0.836,    111.527       
# span 4 =   0.945380,  96.766066       
# span 5 =      0.954,    124.085       
# span 6 =      6.201,      7.884       
# span 7 =    41.1767,   214.9037       
# span 8 =    -0.1941,     7.3190       
# span 9 =    -0.2377,    96.9940       
# span 10 =     0.0113,     0.0598      
# span 11 =     -0.169,      0.241      
# span 12 =     -0.456,      7.459      
# span 13 =     -0.662,     10.819      
# span 14 =          1,        520      
# span 15 = 1.2339e-01, 4.4405e+02      
# span 16 = 0.0000e+00, 0.0000e+00      
# interval = seconds: 0.25
# start_time = Oct 08 2018 15:07:43 [Instrument's time stamp, header]
# bad_flag = -9.990e-29
# <Sensors count="9" >
#   <sensor Channel="1" >
#     <!-- Count, Temperature -->
#     <TemperatureSensor SensorID="58" >
#       <SerialNumber>7809</SerialNumber>
#       <CalibrationDate>09-Mar-18</CalibrationDate>
#       <A0>1.21093245e-003</A0>
#       <A1>2.84356597e-004</A1>
#       <A2>-1.94507398e-006</A2>
#       <A3>2.12806664e-007</A3>
#       <Slope>1.00000000</Slope>
#       <Offset>0.0000</Offset>
#     </TemperatureSensor>
#   </sensor>
#   <sensor Channel="2" >
#     <!-- Frequency 0, Conductivity -->
#     <ConductivitySensor SensorID="3" >
#       <SerialNumber>7809</SerialNumber>
#       <CalibrationDate>09-Mar-18</CalibrationDate>
#       <UseG_J>1</UseG_J>
#       <!-- Cell const and series R are applicable only for wide range sensors. -->
#       <SeriesR>0.0000</SeriesR>
#       <CellConst>2000.0000</CellConst>
#       <ConductivityType>0</ConductivityType>
#       <Coefficients equation="0" >
#         <A>0.00000000e+000</A>
#         <B>0.00000000e+000</B>
#         <C>0.00000000e+000</C>
#         <D>0.00000000e+000</D>
#         <M>0.0</M>
#         <CPcor>-9.57000000e-008</CPcor>
#       </Coefficients>
#       <Coefficients equation="1" >
#         <G>-1.00672082e+000</G>
#         <H>1.26906489e-001</H>
#         <I>-1.40584351e-004</I>
#         <J>2.47837121e-005</J>
#         <CPcor>-9.57000000e-008</CPcor>
#         <CTcor>3.2500e-006</CTcor>
#         <!-- WBOTC not applicable unless ConductivityType = 1. -->
#         <WBOTC>0.00000000e+000</WBOTC>
#       </Coefficients>
#       <Slope>1.00000000</Slope>
#       <Offset>0.00000</Offset>
#     </ConductivitySensor>
#   </sensor>
#   <sensor Channel="3" >
#     <!-- Count, Pressure, Strain Gauge -->
#     <PressureSensor SensorID="46" >
#       <SerialNumber>7809</SerialNumber>
#       <CalibrationDate>07-Mar-18</CalibrationDate>
#       <PA0>-4.08176359e-002</PA0>
#       <PA1>4.85188419e-004</PA1>
#       <PA2>-3.51168169e-012</PA2>
#       <PTEMPA0>-5.37806900e+001</PTEMPA0>
#       <PTEMPA1>5.36620721e+001</PTEMPA1>
#       <PTEMPA2>4.87214332e-002</PTEMPA2>
#       <PTCA0>5.25213435e+005</PTCA0>
#       <PTCA1>1.79532409e+000</PTCA1>
#       <PTCA2>-2.84353509e-001</PTCA2>
#       <PTCB0>2.51668750e+001</PTCB0>
#       <PTCB1>3.75000000e-004</PTCB1>
#       <PTCB2>0.00000000e+000</PTCB2>
#       <Offset>0.000000</Offset>
#     </PressureSensor>
#   </sensor>
#   <sensor Channel="4" >
#     <!-- A/D voltage 0, pH -->
#     <pH_Sensor SensorID="43" >
#       <SerialNumber>0363</SerialNumber>
#       <CalibrationDate>16-Mar-18</CalibrationDate>
#       <Slope>4.6194</Slope>
#       <Offset>2.5947</Offset>
#     </pH_Sensor>
#   </sensor>
#   <sensor Channel="5" >
#     <!-- A/D voltage 1, Oxidation Reduction Potential -->
#     <OxidationReductionPotentialSensor SensorID="41" >
#       <SerialNumber>0363</SerialNumber>
#       <CalibrationDate>16-Mar-18</CalibrationDate>
#       <B>2.499480</B>
#       <M>-0.496195</M>
#       <Offset>0.0</Offset>
#     </OxidationReductionPotentialSensor>
#   </sensor>
#   <sensor Channel="6" >
#     <!-- A/D voltage 2, Oxygen, SBE 43 -->
#     <OxygenSensor SensorID="38" >
#       <SerialNumber>0434</SerialNumber>
#       <CalibrationDate>13-Mar-18</CalibrationDate>
#       <Use2007Equation>1</Use2007Equation>
#       <CalibrationCoefficients equation="0" >
#         <!-- Coefficients for Owens-Millard equation. -->
#         <Boc>0.0000</Boc>
#         <Soc>0.0000e+000</Soc>
#         <offset>0.0000</offset>
#         <Pcor>0.00e+000</Pcor>
#         <Tcor>0.0000</Tcor>
#         <Tau>0.0</Tau>
#       </CalibrationCoefficients>
#       <CalibrationCoefficients equation="1" >
#         <!-- Coefficients for Sea-Bird equation - SBE calibration in 2007 and later. -->
#         <Soc>4.5718e-001</Soc>
#         <offset>-0.6113</offset>
#         <A>-4.0649e-003</A>
#         <B> 2.0945e-004</B>
#         <C>-3.3182e-006</C>
#         <D0> 2.5826e+000</D0>
#         <D1> 1.92634e-004</D1>
#         <D2>-4.64803e-002</D2>
#         <E> 3.6000e-002</E>
#         <Tau20> 1.2200</Tau20>
#         <H1>-3.3000e-002</H1>
#         <H2> 5.0000e+003</H2>
#         <H3> 1.4500e+003</H3>
#       </CalibrationCoefficients>
#     </OxygenSensor>
#   </sensor>
#   <sensor Channel="7" >
#     <!-- A/D voltage 3, PAR/Logarithmic, Satlantic -->
#     <PARLog_SatlanticSensor SensorID="76" >
#       <SerialNumber>1122</SerialNumber>
#       <CalibrationDate>22-Jun-2017</CalibrationDate>
#       <a0>9.6090e-001</a0>
#       <a1>8.0780e-001</a1>
#       <Im>1.3589e+000</Im>
#       <Multiplier>1.0000e+000</Multiplier>
#     </PARLog_SatlanticSensor>
#   </sensor>
#   <sensor Channel="8" >
#     <!-- A/D voltage 4, Fluorometer, WET Labs ECO-AFL/FL -->
#     <FluoroWetlabECO_AFL_FL_Sensor SensorID="20" >
#       <SerialNumber>FLNTURT-2496</SerialNumber>
#       <CalibrationDate>25-Jan-2017</CalibrationDate>
#       <ScaleFactor>5.30000000e+001</ScaleFactor>
#       <!-- Dark output -->
#       <Vblank>0.0560</Vblank>
#     </FluoroWetlabECO_AFL_FL_Sensor>
#   </sensor>
#   <sensor Channel="9" >
#     <!-- A/D voltage 5, Turbidity Meter, WET Labs, ECO-NTU -->
#     <TurbidityMeter SensorID="67" >
#       <SerialNumber>FLNTURT-2496</SerialNumber>
#       <CalibrationDate>25-Jan-2017</CalibrationDate>
#       <ScaleFactor>176.000000</ScaleFactor>
#       <!-- Dark output -->
#       <DarkVoltage>0.072000</DarkVoltage>
#     </TurbidityMeter>
#   </sensor>
# </Sensors>
# datcnv_date = Oct 08 2018 15:09:29, 7.26.7.114 [datcnv_vars = 16]
# datcnv_in = C:\DATA\100818_fcr45.hex C:\DATA\SBE19plusV2_7809.xmlcon
# datcnv_skipover = 0
# datcnv_ox_hysteresis_correction = yes
# datcnv_ox_tau_correction = yes
# filter_date = Oct 08 2018 15:09:45, 7.26.7.114
# filter_in = C:\DATA\100818_fcr45.cnv
# filter_low_pass_tc_A = 0.030
# filter_low_pass_tc_B = 0.150
# filter_low_pass_A_vars = tv290C c0uS/cm par/sat/log
# filter_low_pass_B_vars = prdM prdE
# alignctd_date = Oct 08 2018 15:10:08, 7.26.7.114
# alignctd_in = C:\DATA\100818_fcr45.cnv
# alignctd_adv = tv290C 0.500, sbeox0Mg/L 3.000, sbeox0PS 3.000                                                                                                                                                                      
# file_type = ascii
*END*
     -0.465    23.6111     8.3608     98.594   0.945380      0.954      6.202   194.1200    -0.1334    -0.1303     0.0113      0.000     -0.456     -0.662          1 2.5485e+02 0.0000e+00
     -0.466    23.6105     8.3586     98.568   1.195778      1.241      6.205   192.9465    -0.1415    -0.1974     0.0114     -0.000     -0.456     -0.662          2 2.6984e+02 0.0000e+00
     -0.465    23.6098     8.3598     98.579   1.523594      1.557      6.223   191.1672    -0.1860    -0.1840     0.0114      0.000     -0.456     -0.662          3 3.1163e+02 0.0000e+00
     -0.465    23.6094     8.3582     98.559   1.721715      1.787      6.229   194.9908    -0.1779     0.2188     0.0114      0.000     -0.456     -0.662          4 2.7840e+02 0.0000e+00
     -0.465    23.6089     8.3588     98.565   1.748627      1.787      6.213   194.1579    -0.1455     0.2188     0.0114      0.000     -0.456     -0.662          5 1.8593e+02 0.0000e+00
     -0.465    23.6084     8.3590     98.566   1.667750      1.729      6.204   192.4165    -0.1577     0.2322     0.0114      0.000     -0.456     -0.662          6 1.6021e+02 0.0000e+00
     -0.466    23.6080     8.3614     98.593   1.644717      1.672      6.201   194.0822    -0.1617     0.1785     0.0114     -0.000     -0.456     -0.662          7 1.6291e+02 0.0000e+00
     -0.465    23.6073     8.3641     98.623   1.718075      1.787      6.206   214.9037    -0.1698     0.2322     0.0114     -0.000     -0.456     -0.662          8 1.5782e+02 0.0000e+00
     -0.465    23.6065     8.3626     98.604   1.694890      1.729      6.210   130.7849    -0.1698     0.2188     0.0114      0.000     -0.456     -0.662          9 1.5229e+02 0.0000e+00
     -0.465    23.6058     8.3637     98.599   1.673570      1.729      6.203   198.2465    -0.1941     0.2054     0.0114      0.000     -0.456     -0.662         10 1.2845e+02 0.0000e+00
     -0.466    23.6050     8.3679     98.622   1.744606      1.787      6.205   198.3222    -0.1658     0.1651     0.0114     -0.000     -0.456     -0.662         11 1.2392e+02 0.0000e+00
     -0.465    23.6046     8.3759     98.698   1.784136      1.844      6.212   197.4893    -0.1334     0.1785     0.0114      0.000     -0.456     -0.662         12 1.3407e+02 0.0000e+00
     -0.465    23.6035     8.3847     98.789   1.683592      1.729      6.214   189.8043    -0.1617     0.1785     0.0114      0.000     -0.456     -0.662         13 1.4954e+02 0.0000e+00
     -0.465    23.6026     8.3949     98.902   1.692082      1.729      6.213   193.5900    -0.1658     0.2860     0.0114      0.000     -0.456     -0.662         14 2.0346e+02 0.0000e+00
     -0.465    23.6018     8.4100     99.070   1.832787      1.902      6.212   193.4386    -0.1819     0.1651     0.0114      0.000     -0.456     -0.662         15 2.4701e+02 0.0000e+00
     -0.465    23.6010     8.4327     99.333   1.804569      1.844      6.218   187.2679    -0.1415     0.2994     0.0114     -0.000     -0.456     -0.662         16 2.6003e+02 0.0000e+00
     -0.465    23.6000     8.4525     99.562   1.667984      1.730      6.215   192.4543    -0.1375    -0.1840     0.0114     -0.000     -0.456     -0.662         17 2.7045e+02 0.0000e+00
     -0.466    23.5997     8.4792     99.876   1.706684      1.730      6.218   196.7700    -0.1455    -0.2109     0.0114     -0.000     -0.456     -0.662         18 2.8995e+02 0.0000e+00
     -0.465    23.5984     8.4717     99.783   1.578760      1.672      6.220   197.7543    -0.1819    -0.1706     0.0114     -0.000     -0.455     -0.661         19 3.1807e+02 0.0000e+00
     -0.465    23.5874     8.4225     99.187   1.531105      1.500      6.221   199.3822    -0.1577    -0.1437     0.0114     -0.000     -0.448     -0.650         20 3.4313e+02 0.0000e+00
     -0.442    23.5713     8.3246     98.007   4.845468      4.887      6.306   212.9351    -0.1617    -0.2243     0.0121      0.006     -0.421     -0.610         21 3.7709e+02 0.0000e+00
     -0.377    23.5610     8.1835     96.322  18.542416     18.734      6.843   149.5242    -0.1698    -0.2377     0.0168      0.027     -0.368     -0.533         22 4.1407e+02 0.0000e+00
     -0.310    23.5548     8.0211     94.393  33.343590     35.044      7.422   140.3249    -0.1577    -0.1974     0.0233      0.061     -0.301     -0.436         23 4.3051e+02 0.0000e+00
     -0.232    23.5497     7.8390     92.243  36.158630     36.835      7.747   142.2177    -0.1253    -0.1034     0.0240      0.105     -0.229     -0.332         24 4.4105e+02 0.0000e+00
