* Sea-Bird SBE19plus  Data File:
* FileName = C:\DATA\100818_fcr_0002.hex
* Software version 2.6.3.104
* Temperature SN = 7809
* Conductivity SN = 7809
* System UpLoad Time = Oct 08 2018 14:57:11
* <ApplicationData>
* <Seaterm232>
* <SoftwareVersion>2.6.3.104</SoftwareVersion>
* <BuildDate>30-Jun-2017</BuildDate>
* </Seaterm232>
* </ApplicationData>
* <InstrumentState>
* <HardwareData DeviceType='SBE19plus' SerialNumber='01907809'>
*
*    <Manufacturer>Sea-Bird Electronics, Inc.</Manufacturer>
*
*    <FirmwareVersion>3.1.8</FirmwareVersion>
*
*    <FirmwareDate>Mar  9 2016 16:22:29</FirmwareDate>
*
*    <CommandSetVersion>1.4</CommandSetVersion>
*
*    <PCBAssembly PCBSerialNum='120721' AssemblyNum='41054J'/>
*
*    <PCBAssembly PCBSerialNum='120715' AssemblyNum='41967A'/>
*
*    <PCBAssembly PCBSerialNum='116699' AssemblyNum='41606'/>
*
*    <PCBAssembly PCBSerialNum='120719' AssemblyNum='41059D'/>
*
*    <MfgDate>28-Apr-2017</MfgDate>
*
*    <InternalSensors>
*
*       <Sensor id='Main Temperature'>
*
*          <type>temperature0</type>
*
*          <SerialNumber>01907809</SerialNumber>
*
*       </Sensor>
*
*       <Sensor id='Main Conductivity'>
*
*          <type>conductivity-0</type>
*
*          <SerialNumber>01907809</SerialNumber>
*
*       </Sensor>
*
*       <Sensor id='Main Pressure'>
*
*          <type>strain-0</type>
*
*          <SerialNumber>10586018</SerialNumber>
*
*       </Sensor>
*
*    </InternalSensors>
*
*    <ExternalSensors>
*
*       <Sensor id='volt 0'>
*
*          <type>pH</type>
*
*          <SerialNumber>27-0363</SerialNumber>
*
*       </Sensor>
*
*       <Sensor id='volt 1'>
*
*          <type>ORP</type>
*
*          <SerialNumber>27-0363</SerialNumber>
*
*       </Sensor>
*
*       <Sensor id='volt 2'>
*
*          <type>OXY</type>
*
*          <SerialNumber>43-0434</SerialNumber>
*
*       </Sensor>
*
*       <Sensor id='volt 3'>
*
*          <type>PAR</type>
*
*          <SerialNumber>1122</SerialNumber>
*
*       </Sensor>
*
*       <Sensor id='volt 4'>
*
*          <type>ECO AFL/FL</type>
*
*          <SerialNumber>FLNTURT-2496</SerialNumber>
*
*       </Sensor>
*
*       <Sensor id='volt 5'>
*
*          <type>ECO-NTU</type>
*
*          <SerialNumber>FLNTURT-2496</SerialNumber>
*
*       </Sensor>
*
*       <Sensor id='serial'>
*
*          <type>not assigned</type>
*
*          <SerialNumber>not assigned</SerialNumber>
*
*       </Sensor>
*
*    </ExternalSensors>
*
* </HardwareData>
* <StatusData DeviceType='SBE19plus' SerialNumber='01907809'>
*
*    <DateTime>2018-10-08T18:56:32</DateTime>
*
*    <LoggingState>not logging</LoggingState>
*
*    <EventSummary numEvents='0'/>
*
*    <Power>
*
*       <vMain>12.4</vMain>
*
*       <vLith>8.8</vLith>
*
*       <iMain>63.2</iMain>
*
*       <iPump>50.0</iPump>
*
*       <iExt01>13.7</iExt01>
*
*       <iExt2345>43.2</iExt2345>
*
*    </Power>
*
*    <MemorySummary>
*
*       <Bytes>65366</Bytes>
*
*       <Samples>2842</Samples>
*
*       <SamplesFree>2857946</SamplesFree>
*
*       <SampleLength>23</SampleLength>
*
*       <Profiles>5</Profiles>
*
*    </MemorySummary>
*
* </StatusData>
* <ConfigurationData DeviceType='SBE19plus' SerialNumber='01907809'>
*
*    <ProfileMode>
*
*       <ScansToAverage>1</ScansToAverage>
*
*       <MinimumCondFreq>5</MinimumCondFreq>
*
*       <PumpDelay>45</PumpDelay>
*
*       <AutoRun>no</AutoRun>
*
*       <IgnoreSwitch>no</IgnoreSwitch>
*
*    </ProfileMode>
*
*    <Battery>
*
*       <Type>alkaline</Type>
*
*       <CutOff>7.5</CutOff>
*
*    </Battery>
*
*    <DataChannels>
*
*       <ExtVolt0>yes</ExtVolt0>
*
*       <ExtVolt1>yes</ExtVolt1>
*
*       <ExtVolt2>yes</ExtVolt2>
*
*       <ExtVolt3>yes</ExtVolt3>
*
*       <ExtVolt4>yes</ExtVolt4>
*
*       <ExtVolt5>yes</ExtVolt5>
*
*       <SBE38>no</SBE38>
*
*       <WETLABS>no</WETLABS>
*
*       <OPTODE>no</OPTODE>
*
*       <SBE63>no</SBE63>
*
*       <SeaFET>no</SeaFET>
*
*       <GTD>no</GTD>
*
*    </DataChannels>
*
*    <EchoCharacters>yes</EchoCharacters>
*
*    <OutputExecutedTag>yes</OutputExecutedTag>
*
*    <OutputFormat>raw HEX</OutputFormat>
*
* </ConfigurationData>
* <CalibrationCoefficients DeviceType='SBE19plus' SerialNumber='01907809'>
*
*    <Calibration format='TEMP1' id='Main Temperature'>
*
*       <SerialNum>01907809</SerialNum>
*
*       <CalDate>09-Mar-18</CalDate>
*
*       <TA0>1.210932e-03</TA0>
*
*       <TA1>2.843566e-04</TA1>
*
*       <TA2>-1.945074e-06</TA2>
*
*       <TA3>2.128067e-07</TA3>
*
*       <TOFFSET>0.000000e+00</TOFFSET>
*
*    </Calibration>
*
*    <Calibration format='WBCOND0' id='Main Conductivity'>
*
*       <SerialNum>01907809</SerialNum>
*
*       <CalDate>09-Mar-18</CalDate>
*
*       <G>-1.006721e+00</G>
*
*       <H>1.269065e-01</H>
*
*       <I>-1.405844e-04</I>
*
*       <J>2.478371e-05</J>
*
*       <CPCOR>-9.570000e-08</CPCOR>
*
*       <CTCOR>3.250000e-06</CTCOR>
*
*       <CSLOPE>1.000000e+00</CSLOPE>
*
*    </Calibration>
*
*    <Calibration format='STRAIN0' id='Main Pressure'>
*
*       <SerialNum>10586018</SerialNum>
*
*       <CalDate>07-Mar-18</CalDate>
*
*       <PA0>-4.081764e-02</PA0>
*
*       <PA1>4.851884e-04</PA1>
*
*       <PA2>-3.511682e-12</PA2>
*
*       <PTCA0>5.252134e+05</PTCA0>
*
*       <PTCA1>1.795324e+00</PTCA1>
*
*       <PTCA2>-2.843535e-01</PTCA2>
*
*       <PTCB0>2.516687e+01</PTCB0>
*
*       <PTCB1>3.750000e-04</PTCB1>
*
*       <PTCB2>0.000000e+00</PTCB2>
*
*       <PTEMPA0>-5.378069e+01</PTEMPA0>
*
*       <PTEMPA1>5.366207e+01</PTEMPA1>
*
*       <PTEMPA2>4.872143e-02</PTEMPA2>
*
*       <POFFSET>5.000000e-01</POFFSET>
*
*       <PRANGE>1.600000e+02</PRANGE>
*
*    </Calibration>
*
*    <Calibration format='VOLT0' id='Volt 0'>
*
*       <OFFSET>-4.920000e-02</OFFSET>
*
*       <SLOPE>1.248122e+00</SLOPE>
*
*    </Calibration>
*
*    <Calibration format='VOLT0' id='Volt 1'>
*
*       <OFFSET>-4.784000e-02</OFFSET>
*
*       <SLOPE>1.248871e+00</SLOPE>
*
*    </Calibration>
*
*    <Calibration format='VOLT0' id='Volt 2'>
*
*       <OFFSET>-4.864632e-02</OFFSET>
*
*       <SLOPE>1.248714e+00</SLOPE>
*
*    </Calibration>
*
*    <Calibration format='VOLT0' id='Volt 3'>
*
*       <OFFSET>-4.743790e-02</OFFSET>
*
*       <SLOPE>1.248571e+00</SLOPE>
*
*    </Calibration>
*
*    <Calibration format='VOLT0' id='Volt 4'>
*
*       <OFFSET>-4.671263e-02</OFFSET>
*
*       <SLOPE>1.248951e+00</SLOPE>
*
*    </Calibration>
*
*    <Calibration format='VOLT0' id='Volt 5'>
*
*       <OFFSET>-4.871053e-02</OFFSET>
*
*       <SLOPE>1.249136e+00</SLOPE>
*
*    </Calibration>
*
*    <Calibration format='FREQ0' id='external frequency channel'>
*
*       <EXTFREQSF>1.000014e+00</EXTFREQSF>
*
*    </Calibration>
*
* </CalibrationCoefficients>
* <EventCounters DeviceType='SBE19plus' SerialNumber='01907809'>
*
*    <EventSummary numEvents='0'/>
*
* </EventCounters></InstrumentState>
* <Headers>
*
* cast   2 08 Oct 2018 14:13:35 samples 505 to 898, avg = 1, stop = mag switch
*
# nquan = 17
# nvalues = 354                         
# units = specified
# name 0 = depFM: Depth [fresh water, m]
# name 1 = tv290C: Temperature [ITS-90, deg C]
# name 2 = sbeox0Mg/L: Oxygen, SBE 43 [mg/l]
# name 3 = sbeox0PS: Oxygen, SBE 43 [% saturation]
# name 4 = c0uS/cm: Conductivity [uS/cm]
# name 5 = specc: Specific Conductance [uS/cm]
# name 6 = ph: pH
# name 7 = orp: Oxidation Reduction Potential [mV]
# name 8 = flECO-AFL: Fluorescence, WET Labs ECO-AFL/FL [mg/m^3]
# name 9 = turbWETntu0: Turbidity, WET Labs ECO [NTU]
# name 10 = sal00: Salinity, Practical [PSU]
# name 11 = dz/dtM: Descent Rate [m/s]
# name 12 = prdM: Pressure, Strain Gauge [db]
# name 13 = prdE: Pressure, Strain Gauge [psi]
# name 14 = scan: Scan Count
# name 15 = par/sat/log: PAR/Logarithmic, Satlantic
# name 16 = flag:  0.000e+00
# span 0 =     -0.472,      3.356       
# span 1 =    19.9992,    22.7796       
# span 2 =     0.0614,     9.5413       
# span 3 =      0.680,    110.747       
# span 4 =   0.405715,  45.996637       
# span 5 =      1.156,     51.177       
# span 6 =      5.951,      7.669       
# span 7 =   126.0906,   279.5260       
# span 8 =    -0.1941,     4.5491       
# span 9 =    -0.3049,    36.9174       
# span 10 =     0.0109,     0.0291      
# span 11 =     -0.291,      0.289      
# span 12 =     -0.463,      3.289      
# span 13 =     -0.672,      4.771      
# span 14 =          1,        354      
# span 15 = 7.4687e+00, 4.3222e+02      
# span 16 = 0.0000e+00, 0.0000e+00      
# interval = seconds: 0.25
# start_time = Oct 08 2018 14:13:35 [Instrument's time stamp, header]
# bad_flag = -9.990e-29
# <Sensors count="9" >
#   <sensor Channel="1" >
#     <!-- Count, Temperature -->
#     <TemperatureSensor SensorID="58" >
#       <SerialNumber>7809</SerialNumber>
#       <CalibrationDate>09-Mar-18</CalibrationDate>
#       <A0>1.21093245e-003</A0>
#       <A1>2.84356597e-004</A1>
#       <A2>-1.94507398e-006</A2>
#       <A3>2.12806664e-007</A3>
#       <Slope>1.00000000</Slope>
#       <Offset>0.0000</Offset>
#     </TemperatureSensor>
#   </sensor>
#   <sensor Channel="2" >
#     <!-- Frequency 0, Conductivity -->
#     <ConductivitySensor SensorID="3" >
#       <SerialNumber>7809</SerialNumber>
#       <CalibrationDate>09-Mar-18</CalibrationDate>
#       <UseG_J>1</UseG_J>
#       <!-- Cell const and series R are applicable only for wide range sensors. -->
#       <SeriesR>0.0000</SeriesR>
#       <CellConst>2000.0000</CellConst>
#       <ConductivityType>0</ConductivityType>
#       <Coefficients equation="0" >
#         <A>0.00000000e+000</A>
#         <B>0.00000000e+000</B>
#         <C>0.00000000e+000</C>
#         <D>0.00000000e+000</D>
#         <M>0.0</M>
#         <CPcor>-9.57000000e-008</CPcor>
#       </Coefficients>
#       <Coefficients equation="1" >
#         <G>-1.00672082e+000</G>
#         <H>1.26906489e-001</H>
#         <I>-1.40584351e-004</I>
#         <J>2.47837121e-005</J>
#         <CPcor>-9.57000000e-008</CPcor>
#         <CTcor>3.2500e-006</CTcor>
#         <!-- WBOTC not applicable unless ConductivityType = 1. -->
#         <WBOTC>0.00000000e+000</WBOTC>
#       </Coefficients>
#       <Slope>1.00000000</Slope>
#       <Offset>0.00000</Offset>
#     </ConductivitySensor>
#   </sensor>
#   <sensor Channel="3" >
#     <!-- Count, Pressure, Strain Gauge -->
#     <PressureSensor SensorID="46" >
#       <SerialNumber>7809</SerialNumber>
#       <CalibrationDate>07-Mar-18</CalibrationDate>
#       <PA0>-4.08176359e-002</PA0>
#       <PA1>4.85188419e-004</PA1>
#       <PA2>-3.51168169e-012</PA2>
#       <PTEMPA0>-5.37806900e+001</PTEMPA0>
#       <PTEMPA1>5.36620721e+001</PTEMPA1>
#       <PTEMPA2>4.87214332e-002</PTEMPA2>
#       <PTCA0>5.25213435e+005</PTCA0>
#       <PTCA1>1.79532409e+000</PTCA1>
#       <PTCA2>-2.84353509e-001</PTCA2>
#       <PTCB0>2.51668750e+001</PTCB0>
#       <PTCB1>3.75000000e-004</PTCB1>
#       <PTCB2>0.00000000e+000</PTCB2>
#       <Offset>0.000000</Offset>
#     </PressureSensor>
#   </sensor>
#   <sensor Channel="4" >
#     <!-- A/D voltage 0, pH -->
#     <pH_Sensor SensorID="43" >
#       <SerialNumber>0363</SerialNumber>
#       <CalibrationDate>16-Mar-18</CalibrationDate>
#       <Slope>4.6194</Slope>
#       <Offset>2.5947</Offset>
#     </pH_Sensor>
#   </sensor>
#   <sensor Channel="5" >
#     <!-- A/D voltage 1, Oxidation Reduction Potential -->
#     <OxidationReductionPotentialSensor SensorID="41" >
#       <SerialNumber>0363</SerialNumber>
#       <CalibrationDate>16-Mar-18</CalibrationDate>
#       <B>2.499480</B>
#       <M>-0.496195</M>
#       <Offset>0.0</Offset>
#     </OxidationReductionPotentialSensor>
#   </sensor>
#   <sensor Channel="6" >
#     <!-- A/D voltage 2, Oxygen, SBE 43 -->
#     <OxygenSensor SensorID="38" >
#       <SerialNumber>0434</SerialNumber>
#       <CalibrationDate>13-Mar-18</CalibrationDate>
#       <Use2007Equation>1</Use2007Equation>
#       <CalibrationCoefficients equation="0" >
#         <!-- Coefficients for Owens-Millard equation. -->
#         <Boc>0.0000</Boc>
#         <Soc>0.0000e+000</Soc>
#         <offset>0.0000</offset>
#         <Pcor>0.00e+000</Pcor>
#         <Tcor>0.0000</Tcor>
#         <Tau>0.0</Tau>
#       </CalibrationCoefficients>
#       <CalibrationCoefficients equation="1" >
#         <!-- Coefficients for Sea-Bird equation - SBE calibration in 2007 and later. -->
#         <Soc>4.5718e-001</Soc>
#         <offset>-0.6113</offset>
#         <A>-4.0649e-003</A>
#         <B> 2.0945e-004</B>
#         <C>-3.3182e-006</C>
#         <D0> 2.5826e+000</D0>
#         <D1> 1.92634e-004</D1>
#         <D2>-4.64803e-002</D2>
#         <E> 3.6000e-002</E>
#         <Tau20> 1.2200</Tau20>
#         <H1>-3.3000e-002</H1>
#         <H2> 5.0000e+003</H2>
#         <H3> 1.4500e+003</H3>
#       </CalibrationCoefficients>
#     </OxygenSensor>
#   </sensor>
#   <sensor Channel="7" >
#     <!-- A/D voltage 3, PAR/Logarithmic, Satlantic -->
#     <PARLog_SatlanticSensor SensorID="76" >
#       <SerialNumber>1122</SerialNumber>
#       <CalibrationDate>22-Jun-2017</CalibrationDate>
#       <a0>9.6090e-001</a0>
#       <a1>8.0780e-001</a1>
#       <Im>1.3589e+000</Im>
#       <Multiplier>1.0000e+000</Multiplier>
#     </PARLog_SatlanticSensor>
#   </sensor>
#   <sensor Channel="8" >
#     <!-- A/D voltage 4, Fluorometer, WET Labs ECO-AFL/FL -->
#     <FluoroWetlabECO_AFL_FL_Sensor SensorID="20" >
#       <SerialNumber>FLNTURT-2496</SerialNumber>
#       <CalibrationDate>25-Jan-2017</CalibrationDate>
#       <ScaleFactor>5.30000000e+001</ScaleFactor>
#       <!-- Dark output -->
#       <Vblank>0.0560</Vblank>
#     </FluoroWetlabECO_AFL_FL_Sensor>
#   </sensor>
#   <sensor Channel="9" >
#     <!-- A/D voltage 5, Turbidity Meter, WET Labs, ECO-NTU -->
#     <TurbidityMeter SensorID="67" >
#       <SerialNumber>FLNTURT-2496</SerialNumber>
#       <CalibrationDate>25-Jan-2017</CalibrationDate>
#       <ScaleFactor>176.000000</ScaleFactor>
#       <!-- Dark output -->
#       <DarkVoltage>0.072000</DarkVoltage>
#     </TurbidityMeter>
#   </sensor>
# </Sensors>
# datcnv_date = Oct 08 2018 15:09:28, 7.26.7.114 [datcnv_vars = 16]
# datcnv_in = C:\DATA\100818_fcr20.hex C:\DATA\SBE19plusV2_7809.xmlcon
# datcnv_skipover = 0
# datcnv_ox_hysteresis_correction = yes
# datcnv_ox_tau_correction = yes
# filter_date = Oct 08 2018 15:09:45, 7.26.7.114
# filter_in = C:\DATA\100818_fcr20.cnv
# filter_low_pass_tc_A = 0.030
# filter_low_pass_tc_B = 0.150
# filter_low_pass_A_vars = tv290C c0uS/cm par/sat/log
# filter_low_pass_B_vars = prdM prdE
# alignctd_date = Oct 08 2018 15:10:08, 7.26.7.114
# alignctd_in = C:\DATA\100818_fcr20.cnv
# alignctd_adv = tv290C 0.500, sbeox0Mg/L 3.000, sbeox0PS 3.000                                                                                                                                                                      
# file_type = ascii
*END*
     -0.472    22.3612     8.5741     98.757   1.610521      1.716      6.011   244.1673    -0.1617    -0.2780     0.0109 -4.211e-16     -0.463     -0.672          1 3.1050e+02 0.0000e+00
     -0.472    22.3615     8.5736     98.752   1.531719      1.598      6.015   234.2487    -0.1779    -0.2512     0.0109      0.000     -0.463     -0.671          2 3.3368e+02 0.0000e+00
     -0.472    22.3617     8.5695     98.705   1.555230      1.657      6.054   255.3731    -0.1738    -0.2243     0.0109      0.000     -0.463     -0.671          3 3.1312e+02 0.0000e+00
     -0.472    22.3622     8.5691     98.701   1.640478      1.716      6.069   262.9067    -0.1617    -0.1572     0.0109      0.000     -0.463     -0.671          4 2.3708e+02 0.0000e+00
     -0.472    22.3625     8.5709     98.723   1.662492      1.775      5.969   227.3587    -0.1698    -0.1706     0.0109      0.000     -0.463     -0.671          5 1.5234e+02 0.0000e+00
     -0.472    22.3629     8.5714     98.729   1.646265      1.716      5.951   240.1923    -0.1698    -0.1974     0.0109      0.000     -0.463     -0.671          6 1.1868e+02 0.0000e+00
     -0.472    22.3632     8.5724     98.740   1.719888      1.834      5.962   236.1416    -0.1860    -0.1572     0.0110      0.000     -0.463     -0.671          7 1.2018e+02 0.0000e+00
     -0.472    22.3637     8.5689     98.701   1.748517      1.834      5.977   235.8766    -0.1860    -0.3049     0.0110      0.000     -0.463     -0.671          8 1.1563e+02 0.0000e+00
     -0.472    22.3641     8.5707     98.722   1.669853      1.775      5.981   243.5995    -0.1577    -0.1303     0.0109      0.000     -0.463     -0.671          9 1.6215e+02 0.0000e+00
     -0.472    22.3641     8.5678     98.689   1.580920      1.657      5.996   236.1794    -0.1698    -0.2646     0.0109      0.000     -0.463     -0.671         10 2.4091e+02 0.0000e+00
     -0.472    22.3643     8.5667     98.676   1.681544      1.775      5.997   245.4166    -0.1779    -0.2377     0.0109     -0.000     -0.463     -0.671         11 2.8314e+02 0.0000e+00
     -0.472    22.3646     8.5695     98.709   1.781493      1.893      6.001   242.5016    -0.1738    -0.1303     0.0110     -0.000     -0.463     -0.671         12 2.9772e+02 0.0000e+00
     -0.472    22.3649     8.5601     98.651   1.634184      1.716      6.002   210.3608    -0.1617    -0.2914     0.0109     -0.000     -0.462     -0.671         13 2.9311e+02 0.0000e+00
     -0.471    22.3652     8.5429     98.655   1.509571      1.598      6.010   243.5616    -0.1658    -0.2512     0.0109      0.000     -0.462     -0.671         14 2.7828e+02 0.0000e+00
     -0.472    22.3656     8.5321     98.703   1.403628      1.480      6.015   250.2245    -0.1617    -0.2512     0.0109      0.000     -0.463     -0.671         15 2.5244e+02 0.0000e+00
     -0.472    22.3655     8.5235     98.720   1.321912      1.392      6.013   279.5260    -0.1455    -0.2512     0.0109      0.000     -0.463     -0.671         16 2.2662e+02 0.0000e+00
     -0.472    22.3661     8.5159     98.731   1.137545      1.215      6.013   253.2909    -0.1941    -0.1974     0.0109      0.000     -0.463     -0.671         17 2.2131e+02 0.0000e+00
     -0.472    22.3661     8.5184     98.829   1.248171      1.274      6.016   243.6752    -0.1779    -0.1706     0.0109      0.000     -0.463     -0.671         18 2.1562e+02 0.0000e+00
     -0.472    22.3667     8.5204     98.895   1.006595      1.156      6.018   244.8109    -0.1617    -0.1437     0.0109      0.000     -0.462     -0.671         19 2.0844e+02 0.0000e+00
     -0.472    22.3660     8.5392     99.139   1.260540      1.156      6.018   240.4573    -0.1698    -0.2646     0.0109      0.000     -0.462     -0.671         20 2.2150e+02 0.0000e+00
     -0.472    22.3673     8.5710     99.515   0.872927      1.215      6.020   222.8537    -0.1496    -0.2109     0.0109     -0.000     -0.463     -0.671         21 2.5608e+02 0.0000e+00
     -0.472    22.3654     8.5855     99.672   1.607400      1.215      6.023   255.9409    -0.1375    -0.1974     0.0109     -0.000     -0.463     -0.671         22 2.9248e+02 0.0000e+00
     -0.472    22.3963     8.5728     99.510   0.405715      1.215      6.030   249.4295    -0.1658    -0.1706     0.0109     -0.000     -0.460     -0.667         23 3.3245e+02 0.0000e+00
     -0.468    22.4956     8.5184     98.867   2.605262      1.451      6.087   236.2173    -0.1698    -0.0900     0.0109      0.001     -0.445     -0.644         24 3.6138e+02 0.0000e+00
