* Sea-Bird SBE19plus  Data File:
* FileName = C:\R\Reservoirs\Data\DataNotYetUploadedToEDI\Raw_CTD\RawDownloads\100923_bvr50_S8188_0004.hex
* Software version 2.8.0.119
* Temperature SN = 8188
* Conductivity SN = 8188
* System UpLoad Time = Oct 10 2023 15:52:59
* <ApplicationData>
* <Seaterm232>
* <SoftwareVersion>2.8.0.119</SoftwareVersion>
* <BuildDate>07-Nov-2018</BuildDate>
* </Seaterm232>
* </ApplicationData>
* <InstrumentState>
* <HardwareData DeviceType='SBE19plus' SerialNumber='01908188'>
*
*    <Manufacturer>Sea-Bird Electronics, Inc.</Manufacturer>
*
*    <FirmwareVersion>3.1.8</FirmwareVersion>
*
*    <FirmwareDate>Mar  9 2016 16:22:29</FirmwareDate>
*
*    <CommandSetVersion>1.4</CommandSetVersion>
*
*    <PCBAssembly PCBSerialNum='260079' AssemblyNum='41054K'/>
*
*    <PCBAssembly PCBSerialNum='260083' AssemblyNum='41059E'/>
*
*    <PCBAssembly PCBSerialNum='260085' AssemblyNum='41606B'/>
*
*    <PCBAssembly PCBSerialNum='260081' AssemblyNum='41967C'/>
*
*    <MfgDate>30 Mar 2022</MfgDate>
*
*    <InternalSensors>
*
*       <Sensor id='Main Temperature'>
*
*          <type>temperature0</type>
*
*          <SerialNumber>01908188</SerialNumber>
*
*       </Sensor>
*
*       <Sensor id='Main Conductivity'>
*
*          <type>conductivity-0</type>
*
*          <SerialNumber>01908188</SerialNumber>
*
*       </Sensor>
*
*       <Sensor id='Main Pressure'>
*
*          <type>strain-0</type>
*
*          <SerialNumber>12220741</SerialNumber>
*
*       </Sensor>
*
*    </InternalSensors>
*
*    <ExternalSensors>
*
*       <Sensor id='volt 0'>
*
*          <type>CHL</type>
*
*          <SerialNumber>FLNTURT-7096</SerialNumber>
*
*       </Sensor>
*
*       <Sensor id='volt 1'>
*
*          <type>NTU</type>
*
*          <SerialNumber>FLNTURT-7096</SerialNumber>
*
*       </Sensor>
*
*       <Sensor id='volt 2'>
*
*          <type>OXY</type>
*
*          <SerialNumber>43-4269</SerialNumber>
*
*       </Sensor>
*
*       <Sensor id='volt 3'>
*
*          <type>not assigned</type>
*
*          <SerialNumber>not assigned</SerialNumber>
*
*       </Sensor>
*
*       <Sensor id='volt 4'>
*
*          <type>PAR</type>
*
*          <SerialNumber>PARLOGICSW-2209</SerialNumber>
*
*       </Sensor>
*
*       <Sensor id='volt 5'>
*
*          <type>not assigned</type>
*
*          <SerialNumber>not assigned</SerialNumber>
*
*       </Sensor>
*
*       <Sensor id='serial'>
*
*          <type>WETLABS</type>
*
*          <SerialNumber>FL3-7350</SerialNumber>
*
*       </Sensor>
*
*    </ExternalSensors>
*
* </HardwareData>
* <StatusData DeviceType='SBE19plus' SerialNumber='01908188'>
*
*    <DateTime>2023-10-10T15:50:27</DateTime>
*
*    <LoggingState>not logging</LoggingState>
*
*    <EventSummary numEvents='0'/>
*
*    <Power>
*
*       <vMain>12.3</vMain>
*
*       <vLith>8.5</vLith>
*
*       <iMain>61.8</iMain>
*
*       <iPump>47.0</iPump>
*
*       <iExt01>22.4</iExt01>
*
*       <iExt2345>20.3</iExt2345>
*
*       <iSerial>46.2</iSerial>
*
*    </Power>
*
*    <MemorySummary>
*
*       <Bytes>188800</Bytes>
*
*       <Samples>7552</Samples>
*
*       <SamplesFree>2624373</SamplesFree>
*
*       <SampleLength>25</SampleLength>
*
*       <Profiles>5</Profiles>
*
*    </MemorySummary>
*
* </StatusData>
* <ConfigurationData DeviceType='SBE19plus' SerialNumber='01908188'>
*
*    <ProfileMode>
*
*       <ScansToAverage>1</ScansToAverage>
*
*       <MinimumCondFreq>5</MinimumCondFreq>
*
*       <PumpDelay>40</PumpDelay>
*
*       <AutoRun>no</AutoRun>
*
*       <IgnoreSwitch>no</IgnoreSwitch>
*
*    </ProfileMode>
*
*    <Battery>
*
*       <Type>alkaline</Type>
*
*       <CutOff>7.5</CutOff>
*
*    </Battery>
*
*    <DataChannels>
*
*       <ExtVolt0>yes</ExtVolt0>
*
*       <ExtVolt1>yes</ExtVolt1>
*
*       <ExtVolt2>yes</ExtVolt2>
*
*       <ExtVolt3>no</ExtVolt3>
*
*       <ExtVolt4>yes</ExtVolt4>
*
*       <ExtVolt5>no</ExtVolt5>
*
*       <SBE38>no</SBE38>
*
*       <WETLABS>yes</WETLABS>
*
*       <OPTODE>no</OPTODE>
*
*       <SBE63>no</SBE63>
*
*       <SeaFET>no</SeaFET>
*
*       <GTD>no</GTD>
*
*    </DataChannels>
*
*    <EchoCharacters>yes</EchoCharacters>
*
*    <OutputExecutedTag>yes</OutputExecutedTag>
*
*    <OutputFormat>raw HEX</OutputFormat>
*
* </ConfigurationData>
* <CalibrationCoefficients DeviceType='SBE19plus' SerialNumber='01908188'>
*
*    <Calibration format='TEMP1' id='Main Temperature'>
*
*       <SerialNum>01908188</SerialNum>
*
*       <CalDate>21-Aug-22</CalDate>
*
*       <TA0>1.265284e-03</TA0>
*
*       <TA1>2.691806e-04</TA1>
*
*       <TA2>-5.655711e-07</TA2>
*
*       <TA3>1.602369e-07</TA3>
*
*       <TOFFSET>0.000000e+00</TOFFSET>
*
*    </Calibration>
*
*    <Calibration format='WBCOND0' id='Main Conductivity'>
*
*       <SerialNum>01908188</SerialNum>
*
*       <CalDate>21-Aug-22</CalDate>
*
*       <G>-1.009562e+00</G>
*
*       <H>1.439229e-01</H>
*
*       <I>-4.343583e-04</I>
*
*       <J>5.328694e-05</J>
*
*       <CPCOR>-9.570000e-08</CPCOR>
*
*       <CTCOR>3.250000e-06</CTCOR>
*
*       <CSLOPE>1.000000e+00</CSLOPE>
*
*    </Calibration>
*
*    <Calibration format='STRAIN0' id='Main Pressure'>
*
*       <SerialNum>12220741</SerialNum>
*
*       <CalDate>11-Aug-22</CalDate>
*
*       <PA0>1.627942e-01</PA0>
*
*       <PA1>4.835849e-04</PA1>
*
*       <PA2>-3.975488e-12</PA2>
*
*       <PTCA0>5.244803e+05</PTCA0>
*
*       <PTCA1>2.817194e+01</PTCA1>
*
*       <PTCA2>-5.842684e-01</PTCA2>
*
*       <PTCB0>2.522087e+01</PTCB0>
*
*       <PTCB1>5.750000e-04</PTCB1>
*
*       <PTCB2>0.000000e+00</PTCB2>
*
*       <PTEMPA0>-5.709556e+01</PTEMPA0>
*
*       <PTEMPA1>5.248567e+01</PTEMPA1>
*
*       <PTEMPA2>-2.281498e-01</PTEMPA2>
*
*       <POFFSET>-4.700000e-02</POFFSET>
*
*       <PRANGE>1.600000e+02</PRANGE>
*
*    </Calibration>
*
*    <Calibration format='VOLT0' id='Volt 0'>
*
*       <OFFSET>-4.657200e-02</OFFSET>
*
*       <SLOPE>1.248989e+00</SLOPE>
*
*    </Calibration>
*
*    <Calibration format='VOLT0' id='Volt 1'>
*
*       <OFFSET>-4.600800e-02</OFFSET>
*
*       <SLOPE>1.249849e+00</SLOPE>
*
*    </Calibration>
*
*    <Calibration format='VOLT0' id='Volt 2'>
*
*       <OFFSET>-4.668000e-02</OFFSET>
*
*       <SLOPE>1.250379e+00</SLOPE>
*
*    </Calibration>
*
*    <Calibration format='VOLT0' id='Volt 3'>
*
*       <OFFSET>-4.643200e-02</OFFSET>
*
*       <SLOPE>1.251002e+00</SLOPE>
*
*    </Calibration>
*
*    <Calibration format='VOLT0' id='Volt 4'>
*
*       <OFFSET>-4.606100e-02</OFFSET>
*
*       <SLOPE>1.249962e+00</SLOPE>
*
*    </Calibration>
*
*    <Calibration format='VOLT0' id='Volt 5'>
*
*       <OFFSET>-4.642700e-02</OFFSET>
*
*       <SLOPE>1.248530e+00</SLOPE>
*
*    </Calibration>
*
*    <Calibration format='FREQ0' id='external frequency channel'>
*
*       <EXTFREQSF>1.000018e+00</EXTFREQSF>
*
*    </Calibration>
*
* </CalibrationCoefficients>
* <EventCounters DeviceType='SBE19plus' SerialNumber='01908188'>
*
*    <EventSummary numEvents='0'/>
*
* </EventCounters></InstrumentState>
* <Headers>
*
* cast   4 09 Oct 2023 10:36:28 samples 5453 to 6404, avg = 1, stop = mag switch
*
# nquan = 16
# nvalues = 952                         
# units = specified
# name 0 = depFM: Depth [fresh water, m]
# name 1 = dz/dtM: Descent Rate [m/s]
# name 2 = sbeox0Mg/L: Oxygen, SBE 43 [mg/l]
# name 3 = sbeox0PS: Oxygen, SBE 43 [% saturation]
# name 4 = specc: Specific Conductance [uS/cm]
# name 5 = c0uS/cm: Conductivity [uS/cm]
# name 6 = wetCDOM: Fluorescence, WET Labs CDOM [mg/m^3]
# name 7 = flECO-AFL: Fluorescence, WET Labs ECO-AFL/FL [mg/m^3]
# name 8 = flECO-AFL1: Fluorescence, WET Labs ECO-AFL/FL, 2 [mg/m^3]
# name 9 = flECO-AFL2: Fluorescence, WET Labs ECO-AFL/FL, 3 [mg/m^3]
# name 10 = par/sat/log: PAR/Logarithmic, Satlantic
# name 11 = turbWETntu0: Turbidity, WET Labs ECO [NTU]
# name 12 = prdM: Pressure, Strain Gauge [db]
# name 13 = prdE: Pressure, Strain Gauge [psi]
# name 14 = tv290C: Temperature [ITS-90, deg C]
# name 15 = flag:  0.000e+00
# span 0 =     -0.800,      8.723       
# span 1 =     -0.318,      0.125       
# span 2 =    -0.2752,     6.5608       
# span 3 =     -2.645,     65.537       
# span 4 =   -627.484,    231.600       
# span 5 =-450.565820, 161.927532       
# span 6 =    -4.5000,     9.3600       
# span 7 =    -0.3139,     6.5107       
# span 8 =    -2.1300,     1.0650       
# span 9 =    -2.8341,     2.2419       
# span 10 = 1.1590e-01, 1.7255e+03      
# span 11 =    -1.4154,    51.0097      
# span 12 =     -0.785,      8.554      
# span 13 =     -1.138,     12.407      
# span 14 =     9.9533,    17.3172      
# span 15 = 0.0000e+00, 0.0000e+00      
# interval = seconds: 0.25
# start_time = Oct 09 2023 10:36:28 [Instrument's time stamp, header]
# bad_flag = -9.990e-29
# <Sensors count="10" >
#   <sensor Channel="1" >
#     <!-- Count, Temperature -->
#     <TemperatureSensor SensorID="58" >
#       <SerialNumber>8188</SerialNumber>
#       <CalibrationDate>21-Aug-22</CalibrationDate>
#       <A0>1.26528397e-003</A0>
#       <A1>2.69180636e-004</A1>
#       <A2>-5.65571102e-007</A2>
#       <A3>1.60236871e-007</A3>
#       <Slope>1.00000000</Slope>
#       <Offset>0.0000</Offset>
#     </TemperatureSensor>
#   </sensor>
#   <sensor Channel="2" >
#     <!-- Frequency 0, Conductivity -->
#     <ConductivitySensor SensorID="3" >
#       <SerialNumber>8188</SerialNumber>
#       <CalibrationDate>21-Aug-22</CalibrationDate>
#       <UseG_J>1</UseG_J>
#       <!-- Cell const and series R are applicable only for wide range sensors. -->
#       <SeriesR>0.0000</SeriesR>
#       <CellConst>2000.0000</CellConst>
#       <ConductivityType>0</ConductivityType>
#       <Coefficients equation="0" >
#         <A>0.00000000e+000</A>
#         <B>0.00000000e+000</B>
#         <C>0.00000000e+000</C>
#         <D>0.00000000e+000</D>
#         <M>0.0</M>
#         <CPcor>-9.57000000e-008</CPcor>
#       </Coefficients>
#       <Coefficients equation="1" >
#         <G>-1.00956200e+000</G>
#         <H>1.43922862e-001</H>
#         <I>-4.34358337e-004</I>
#         <J>5.32869425e-005</J>
#         <CPcor>-9.57000000e-008</CPcor>
#         <CTcor>3.2500e-006</CTcor>
#         <!-- WBOTC not applicable unless ConductivityType = 1. -->
#         <WBOTC>0.00000000e+000</WBOTC>
#       </Coefficients>
#       <Slope>1.00000000</Slope>
#       <Offset>0.00000</Offset>
#     </ConductivitySensor>
#   </sensor>
#   <sensor Channel="3" >
#     <!-- Count, Pressure, Strain Gauge -->
#     <PressureSensor SensorID="46" >
#       <SerialNumber>8188</SerialNumber>
#       <CalibrationDate>11-Aug-22</CalibrationDate>
#       <PA0>1.62794185e-001</PA0>
#       <PA1>4.83584930e-004</PA1>
#       <PA2>-3.97548787e-012</PA2>
#       <PTEMPA0>-5.70955636e+001</PTEMPA0>
#       <PTEMPA1>5.24856726e+001</PTEMPA1>
#       <PTEMPA2>-2.28149804e-001</PTEMPA2>
#       <PTCA0>5.24480263e+005</PTCA0>
#       <PTCA1>2.81719406e+001</PTCA1>
#       <PTCA2>-5.84268386e-001</PTCA2>
#       <PTCB0>2.52208750e+001</PTCB0>
#       <PTCB1>5.75000000e-004</PTCB1>
#       <PTCB2>0.00000000e+000</PTCB2>
#       <Offset>0.000000</Offset>
#     </PressureSensor>
#   </sensor>
#   <sensor Channel="4" >
#     <!-- A/D voltage 0, Fluorometer, WET Labs ECO-AFL/FL -->
#     <FluoroWetlabECO_AFL_FL_Sensor SensorID="20" >
#       <SerialNumber>FLNTURT-7096</SerialNumber>
#       <CalibrationDate>01-Sep-2022</CalibrationDate>
#       <ScaleFactor>5.00000000e+001</ScaleFactor>
#       <!-- Dark output -->
#       <Vblank>0.0680</Vblank>
#     </FluoroWetlabECO_AFL_FL_Sensor>
#   </sensor>
#   <sensor Channel="5" >
#     <!-- A/D voltage 1, Turbidity Meter, WET Labs, ECO-NTU -->
#     <TurbidityMeter SensorID="67" >
#       <SerialNumber>FLNTURT-7096</SerialNumber>
#       <CalibrationDate>01-Sep-2022</CalibrationDate>
#       <ScaleFactor>197.000000</ScaleFactor>
#       <!-- Dark output -->
#       <DarkVoltage>0.067000</DarkVoltage>
#     </TurbidityMeter>
#   </sensor>
#   <sensor Channel="6" >
#     <!-- A/D voltage 2, Oxygen, SBE 43 -->
#     <OxygenSensor SensorID="38" >
#       <SerialNumber>4269</SerialNumber>
#       <CalibrationDate>16-Aug-22</CalibrationDate>
#       <Use2007Equation>1</Use2007Equation>
#       <CalibrationCoefficients equation="0" >
#         <!-- Coefficients for Owens-Millard equation. -->
#         <Boc>0.0000</Boc>
#         <Soc>0.0000e+000</Soc>
#         <offset>0.0000</offset>
#         <Pcor>0.00e+000</Pcor>
#         <Tcor>0.0000</Tcor>
#         <Tau>0.0</Tau>
#       </CalibrationCoefficients>
#       <CalibrationCoefficients equation="1" >
#         <!-- Coefficients for Sea-Bird equation - SBE calibration in 2007 and later. -->
#         <Soc>4.2506e-001</Soc>
#         <offset>-0.4922</offset>
#         <A>-4.5893e-003</A>
#         <B> 1.8653e-004</B>
#         <C>-2.0781e-006</C>
#         <D0> 2.5826e+000</D0>
#         <D1> 1.92634e-004</D1>
#         <D2>-4.64803e-002</D2>
#         <E> 3.6000e-002</E>
#         <Tau20> 2.3100</Tau20>
#         <H1>-3.3000e-002</H1>
#         <H2> 5.0000e+003</H2>
#         <H3> 1.4500e+003</H3>
#       </CalibrationCoefficients>
#     </OxygenSensor>
#   </sensor>
#   <sensor Channel="7" >
#     <!-- A/D voltage 3, PAR/Logarithmic, Satlantic -->
#     <PARLog_SatlanticSensor SensorID="76" >
#       <SerialNumber>2209</SerialNumber>
#       <CalibrationDate>14-Jan-2022</CalibrationDate>
#       <a0>9.8861e-001</a0>
#       <a1>8.0845e-001</a1>
#       <Im>1.3589e+000</Im>
#       <Multiplier>1.0000e+000</Multiplier>
#     </PARLog_SatlanticSensor>
#   </sensor>
#   <sensor Channel="8" >
#     <!-- Serial RS-232, Fluorometer, WET Labs ECO-AFL/FL, 2 -->
#     <FluoroWetlabECO_AFL_FL_Sensor SensorID="20" >
#       <SerialNumber>FL3-7350</SerialNumber>
#       <CalibrationDate>10-Mar-2022</CalibrationDate>
#       <ScaleFactor>4.26000000e-002</ScaleFactor>
#       <!-- Dark output -->
#       <Vblank>50.0000</Vblank>
#     </FluoroWetlabECO_AFL_FL_Sensor>
#   </sensor>
#   <sensor Channel="9" >
#     <!-- Serial RS-232, Fluorometer, WET Labs ECO-AFL/FL, 3 -->
#     <FluoroWetlabECO_AFL_FL_Sensor SensorID="20" >
#       <SerialNumber>FL3-7350</SerialNumber>
#       <CalibrationDate>10-Mar-2022</CalibrationDate>
#       <ScaleFactor>4.23000000e-002</ScaleFactor>
#       <!-- Dark output -->
#       <Vblank>48.0000</Vblank>
#     </FluoroWetlabECO_AFL_FL_Sensor>
#   </sensor>
#   <sensor Channel="10" >
#     <!-- Serial RS-232, Fluorometer, WET Labs ECO CDOM -->
#     <FluoroWetlabCDOM_Sensor SensorID="19" >
#       <SerialNumber>FL3-7350</SerialNumber>
#       <CalibrationDate>10-Mar-2022</CalibrationDate>
#       <ScaleFactor>0.090</ScaleFactor>
#       <!-- Dark output -->
#       <Vblank>50.000</Vblank>
#     </FluoroWetlabCDOM_Sensor>
#   </sensor>
# </Sensors>
# datcnv_date = Oct 10 2023 16:13:16, 7.26.7.129 [datcnv_vars = 15]
# datcnv_in = C:\R\Reservoirs\Data\DataNotYetUploadedToEDI\Raw_CTD\RawDownloads\100923_bvr50_S8188004.hex C:\R\Reservoirs\Data\DataNotYetUploadedToEDI\Raw_CTD\RawDownloads\SBE19plusV2_8188_start20221003.xmlcon
# datcnv_skipover = 0
# datcnv_ox_hysteresis_correction = yes
# datcnv_ox_tau_correction = yes
# filter_date = Oct 10 2023 16:13:45, 7.26.7.129
# filter_in = C:\R\Reservoirs\Data\DataNotYetUploadedToEDI\Raw_CTD\RawDownloads\100923_bvr50_S8188004.cnv
# filter_low_pass_tc_A = 0.500
# filter_low_pass_tc_B = 1.000
# filter_low_pass_A_vars = sbeox0Mg/L sbeox0PS specc c0uS/cm tv290C
# filter_low_pass_B_vars = depFM dz/dtM prdM prdE
# alignctd_date = Oct 10 2023 16:14:24, 7.26.7.129
# alignctd_in = C:\R\Reservoirs\Data\DataNotYetUploadedToEDI\Raw_CTD\RawDownloads\100923_bvr50_S8188004.cnv
# alignctd_adv = dz/dtM 1.000, sbeox0PS 1.000, specc 1.000, c0uS/cm 1.000, flECO-AFL 1.000, turbWETntu0 1.000                                                                                                                        
# file_type = ascii
*END*
     -0.800 3.1383e-08     6.4878     63.245      0.486   0.381550    -4.5000    -0.0316    -2.1300    -2.0304 4.5188e+02     3.7249     -0.784     -1.137    14.2034 0.0000e+00
     -0.800 4.0349e-08     6.4875     63.256      0.486   0.381565    -4.5000    -0.0239    -2.1300    -2.0304 4.6071e+02     3.6197     -0.784     -1.137    14.2035 0.0000e+00
     -0.800 5.1877e-08     6.4873     63.264      0.484   0.379554    -4.5000    -0.0506    -2.1300    -2.0304 4.4371e+02     3.6949     -0.784     -1.137    14.2036 0.0000e+00
     -0.800 6.6699e-08     6.4876     63.269      0.483   0.378937     0.0000    -0.0850     0.0000     0.0846 4.4352e+02     2.7780     -0.784     -1.138    14.2036 0.0000e+00
     -0.800 8.5756e-08     6.4887     63.271      0.484   0.379548     0.0000    -0.0888     0.0000     0.0846 4.3361e+02     2.8832     -0.784     -1.138    14.2037 0.0000e+00
     -0.800 1.1026e-07     6.4899     63.276      0.481   0.377596     0.0000    -0.0926     0.0000     0.0846 4.3692e+02     2.7480     -0.784     -1.138    14.2037 0.0000e+00
     -0.800 1.4176e-07     6.4907     63.279      0.480   0.376514     0.0000    -0.1193     0.0000     0.0846 4.4016e+02     2.8532     -0.784     -1.138    14.2036 0.0000e+00
     -0.800 1.8226e-07     6.4912     63.276      0.479   0.376015     0.0000    -0.0545     0.0000     0.0846 4.4178e+02     3.4093     -0.784     -1.138    14.2035 0.0000e+00
     -0.800 2.3434e-07     6.4915     63.279      0.474   0.372011     0.0000    -0.0278     0.0000     0.1269 4.4506e+02     3.5746     -0.784     -1.138    14.2034 0.0000e+00
     -0.800 3.0129e-07     6.4920     63.290      0.468   0.367389     0.0000    -0.0468     0.0000     0.1269 4.4477e+02     3.4093     -0.784     -1.138    14.2032 0.0000e+00
     -0.800 3.8738e-07     6.4923     63.299      0.465   0.364870     0.0000    -0.0545     0.0000     0.1269 4.4622e+02     3.4394     -0.784     -1.138    14.2031 0.0000e+00
     -0.800 4.9806e-07     6.4921     63.303      0.463   0.363782     0.0000    -0.0964     0.0000     0.1269 4.3872e+02     2.8532     -0.784     -1.138    14.2029 0.0000e+00
     -0.800 6.4036e-07     6.4924     63.302      0.463   0.363835     0.0000    -0.0850     0.0000     0.1692 4.3606e+02     2.8532     -0.784     -1.138    14.2026 0.0000e+00
     -0.800 8.2332e-07     6.4935     63.297      0.465   0.365044     0.0000    -0.0964     0.0000     0.1692 4.3749e+02     2.7480     -0.784     -1.138    14.2023 0.0000e+00
     -0.800      0.000     6.4945     63.292      0.469   0.367731     0.0000    -0.0850     0.0000     0.1692 4.3872e+02     2.7780     -0.784     -1.138    14.2019 0.0000e+00
     -0.800      0.000     6.4950     63.287      0.475   0.372612     0.0000    -0.0926     0.0000     0.1692 4.3474e+02     2.9133     -0.784     -1.138    14.2016 0.0000e+00
     -0.800      0.000     6.4949     63.282      0.481   0.377035     0.0000    -0.0888     0.0000     0.1269 4.3013e+02     2.9133     -0.784     -1.138    14.2014 0.0000e+00
     -0.800      0.000     6.4944     63.276      0.482   0.378225     0.0000    -0.0926     0.0000     0.1269 4.2883e+02     2.9133     -0.784     -1.138    14.2013 0.0000e+00
     -0.800      0.000     6.4939     63.271      0.485   0.380454     0.0000    -0.0773     0.0000     0.1269 4.2780e+02     2.8983     -0.784     -1.138    14.2013 0.0000e+00
     -0.800      0.000     6.4934     63.266      0.490   0.384316     0.0000    -0.0506     0.0000     0.1269 4.2855e+02     3.2139     -0.784     -1.138    14.2014 0.0000e+00
     -0.800      0.000     6.4929     63.258      0.488   0.382932     0.0000    -0.0392     0.0000     0.0846 4.3201e+02     3.1838     -0.784     -1.138    14.2015 0.0000e+00
     -0.800      0.000     6.4923     63.246      0.479   0.375933     0.0000    -0.0812     0.0000     0.0846 4.3502e+02     3.1989     -0.784     -1.138    14.2015 0.0000e+00
     -0.800      0.000     6.4917     63.240      0.470   0.369362     0.0000    -0.0430     0.0000     0.0846 4.1139e+02     3.1538     -0.784     -1.138    14.2016 0.0000e+00
