* Sea-Bird SBE19plus  Data File:
* FileName = C:\DATA\101619_unknown_0005.hex
* Software version 2.8.0.119 SB_Terminal.dll
* Temperature SN = 7809
* Conductivity SN = 7809
* System UpLoad Time = Oct 16 2019 07:56:31
* <ApplicationData>
* <Seaterm232>
* <SoftwareVersion>2.8.0.119</SoftwareVersion>
* <BuildDate>07-Nov-2018</BuildDate>
* </Seaterm232>
* </ApplicationData>
* cast   5 11 Oct 2019 12:23:25 samples 5471 to 6052, avg = 1, stop = mag switch
# nquan = 16
# nvalues = 407                         
# units = specified
# name 0 = depFM: Depth [fresh water, m]
# name 1 = dz/dtM: Descent Rate [m/s]
# name 2 = sbeox0ML/L: Oxygen, SBE 43 [ml/l]
# name 3 = sbeox0PS: Oxygen, SBE 43 [% saturation]
# name 4 = specc: Specific Conductance [uS/cm]
# name 5 = c0uS/cm: Conductivity [uS/cm]
# name 6 = flECO-AFL: Fluorescence, WET Labs ECO-AFL/FL [mg/m^3]
# name 7 = ph: pH
# name 8 = orp: Oxidation Reduction Potential [mV]
# name 9 = par/sat/log: PAR/Logarithmic, Satlantic
# name 10 = turbWETntu0: Turbidity, WET Labs ECO [NTU]
# name 11 = prdM: Pressure, Strain Gauge [db]
# name 12 = prdE: Pressure, Strain Gauge [psi]
# name 13 = tv290C: Temperature [ITS-90, deg C]
# name 14 = density00: Density [density, kg/m^3]
# name 15 = flag:  0.000e+00
# span 0 =     -0.546,      2.405       
# span 1 =     -0.005,      0.121       
# span 2 =     4.2693,     6.4168       
# span 3 =     66.976,    100.686       
# span 4 =      0.335,     40.688       
# span 5 =   0.298321,  36.255794       
# span 6 =    -0.6356,     3.6393       
# span 7 =      6.693,      8.772       
# span 8 =    41.7406,  1195.0876       
# span 9 = 7.0485e+00, 1.8518e+03       
# span 10 =    -3.9431,    16.0723      
# span 11 =     -0.536,      2.359      
# span 12 =     -0.777,      3.421      
# span 13 =    18.6703,    20.4228      
# span 14 =   998.1348,   998.4996      
# span 15 = 0.0000e+00, 0.0000e+00      
# interval = seconds: 0.25
# start_time = Oct 11 2019 12:23:25 [Instrument's time stamp, header]
# bad_flag = -9.990e-29
# <Sensors count="9" >
#   <sensor Channel="1" >
#     <!-- Count, Temperature -->
#     <TemperatureSensor SensorID="58" >
#       <SerialNumber>7809</SerialNumber>
#       <CalibrationDate>24-Mar-19</CalibrationDate>
#       <A0>1.21792325e-003</A0>
#       <A1>2.81669265e-004</A1>
#       <A2>-1.60333336e-006</A2>
#       <A3>1.98414625e-007</A3>
#       <Slope>1.00000000</Slope>
#       <Offset>0.0000</Offset>
#     </TemperatureSensor>
#   </sensor>
#   <sensor Channel="2" >
#     <!-- Frequency 0, Conductivity -->
#     <ConductivitySensor SensorID="3" >
#       <SerialNumber>7809</SerialNumber>
#       <CalibrationDate>24-Mar-19</CalibrationDate>
#       <UseG_J>1</UseG_J>
#       <!-- Cell const and series R are applicable only for wide range sensors. -->
#       <SeriesR>0.0000</SeriesR>
#       <CellConst>2000.0000</CellConst>
#       <ConductivityType>0</ConductivityType>
#       <Coefficients equation="0" >
#         <A>0.00000000e+000</A>
#         <B>0.00000000e+000</B>
#         <C>0.00000000e+000</C>
#         <D>0.00000000e+000</D>
#         <M>0.0</M>
#         <CPcor>-9.57000000e-008</CPcor>
#       </Coefficients>
#       <Coefficients equation="1" >
#         <G>-1.00589325e+000</G>
#         <H>1.26816302e-001</H>
#         <I>-1.51560448e-004</I>
#         <J>2.67137274e-005</J>
#         <CPcor>-9.57000000e-008</CPcor>
#         <CTcor>3.2500e-006</CTcor>
#         <!-- WBOTC not applicable unless ConductivityType = 1. -->
#         <WBOTC>0.00000000e+000</WBOTC>
#       </Coefficients>
#       <Slope>1.00000000</Slope>
#       <Offset>0.00000</Offset>
#     </ConductivitySensor>
#   </sensor>
#   <sensor Channel="3" >
#     <!-- Count, Pressure, Strain Gauge -->
#     <PressureSensor SensorID="46" >
#       <SerialNumber>7809</SerialNumber>
#       <CalibrationDate>11-Mar-19</CalibrationDate>
#       <PA0>4.56561833e-002</PA0>
#       <PA1>4.85095118e-004</PA1>
#       <PA2>-2.88327090e-012</PA2>
#       <PTEMPA0>-5.48784562e+001</PTEMPA0>
#       <PTEMPA1>5.53756816e+001</PTEMPA1>
#       <PTEMPA2>-5.86727098e-001</PTEMPA2>
#       <PTCA0>5.25246745e+005</PTCA0>
#       <PTCA1>1.22304214e+001</PTCA1>
#       <PTCA2>-3.56745036e-001</PTCA2>
#       <PTCB0>2.51668750e+001</PTCB0>
#       <PTCB1>3.75000000e-004</PTCB1>
#       <PTCB2>0.00000000e+000</PTCB2>
#       <Offset>0.000000</Offset>
#     </PressureSensor>
#   </sensor>
#   <sensor Channel="4" >
#     <!-- A/D voltage 0, Oxygen, SBE 43 -->
#     <OxygenSensor SensorID="38" >
#       <SerialNumber>0434</SerialNumber>
#       <CalibrationDate>13-Apr-19</CalibrationDate>
#       <Use2007Equation>1</Use2007Equation>
#       <CalibrationCoefficients equation="0" >
#         <!-- Coefficients for Owens-Millard equation. -->
#         <Boc>0.0000</Boc>
#         <Soc>0.0000e+000</Soc>
#         <offset>0.0000</offset>
#         <Pcor>0.00e+000</Pcor>
#         <Tcor>0.0000</Tcor>
#         <Tau>0.0</Tau>
#       </CalibrationCoefficients>
#       <CalibrationCoefficients equation="1" >
#         <!-- Coefficients for Sea-Bird equation - SBE calibration in 2007 and later. -->
#         <Soc>4.2007e-001</Soc>
#         <offset>-0.6109</offset>
#         <A>-4.3656e-003</A>
#         <B> 1.7017e-004</B>
#         <C>-2.5341e-006</C>
#         <D0> 2.5826e+000</D0>
#         <D1> 1.92634e-004</D1>
#         <D2>-4.64803e-002</D2>
#         <E> 3.6000e-002</E>
#         <Tau20> 1.1800</Tau20>
#         <H1>-3.3000e-002</H1>
#         <H2> 5.0000e+003</H2>
#         <H3> 1.4500e+003</H3>
#       </CalibrationCoefficients>
#     </OxygenSensor>
#   </sensor>
#   <sensor Channel="5" >
#     <!-- A/D voltage 1, PAR/Logarithmic, Satlantic -->
#     <PARLog_SatlanticSensor SensorID="76" >
#       <SerialNumber>1122</SerialNumber>
#       <CalibrationDate>08-May-2019</CalibrationDate>
#       <a0>9.7456e-001</a0>
#       <a1>8.1640e-001</a1>
#       <Im>1.3589e+000</Im>
#       <Multiplier>1.0000e+000</Multiplier>
#     </PARLog_SatlanticSensor>
#   </sensor>
#   <sensor Channel="6" >
#     <!-- A/D voltage 2, pH -->
#     <pH_Sensor SensorID="43" >
#       <SerialNumber>0363</SerialNumber>
#       <CalibrationDate>15-Apr-19</CalibrationDate>
#       <Slope>4.5952</Slope>
#       <Offset>2.5370</Offset>
#     </pH_Sensor>
#   </sensor>
#   <sensor Channel="7" >
#     <!-- A/D voltage 3, Oxidation Reduction Potential -->
#     <OxidationReductionPotentialSensor SensorID="41" >
#       <SerialNumber>0363</SerialNumber>
#       <CalibrationDate>15-Apr-19</CalibrationDate>
#       <B>2.499480</B>
#       <M>-0.496195</M>
#       <Offset>0.0</Offset>
#     </OxidationReductionPotentialSensor>
#   </sensor>
#   <sensor Channel="8" >
#     <!-- A/D voltage 4, Fluorometer, WET Labs ECO-AFL/FL -->
#     <FluoroWetlabECO_AFL_FL_Sensor SensorID="20" >
#       <SerialNumber>FLNTURT-2496</SerialNumber>
#       <CalibrationDate>08-May-2019</CalibrationDate>
#       <ScaleFactor>5.00000000e+001</ScaleFactor>
#       <!-- Dark output -->
#       <Vblank>0.0550</Vblank>
#     </FluoroWetlabECO_AFL_FL_Sensor>
#   </sensor>
#   <sensor Channel="9" >
#     <!-- A/D voltage 5, Turbidity Meter, WET Labs, ECO-NTU -->
#     <TurbidityMeter SensorID="67" >
#       <SerialNumber>FLNTURT-2496</SerialNumber>
#       <CalibrationDate>08-May-2019</CalibrationDate>
#       <ScaleFactor>189.000000</ScaleFactor>
#       <!-- Dark output -->
#       <DarkVoltage>0.071000</DarkVoltage>
#     </TurbidityMeter>
#   </sensor>
# </Sensors>
# datcnv_date = Oct 16 2019 08:03:37, 7.26.7.129 [datcnv_vars = 15]
# datcnv_in = C:\DATA\101119_fcr10.hex C:\DATA\SBE19plusV2_7809.xmlcon
# datcnv_skipover = 0
# datcnv_ox_hysteresis_correction = yes
# datcnv_ox_tau_correction = yes
# filter_date = Oct 16 2019 08:04:03, 7.26.7.129
# filter_in = C:\DATA\101119_fcr10.cnv
# filter_low_pass_tc_A = 0.030
# filter_low_pass_tc_B = 0.150
# filter_low_pass_A_vars = sbeox0ML/L prdM prdE tv290C density00
# filter_low_pass_B_vars = depFM dz/dtM sbeox0PS specc c0uS/cm flECO-AFL ph orp par/sat/log turbWETntu0
# alignctd_date = Oct 16 2019 08:04:28, 7.26.7.129
# alignctd_in = C:\DATA\101119_fcr10.cnv
# alignctd_adv = dz/dtM 1.000, sbeox0PS 1.000, specc 1.000, c0uS/cm 1.000, flECO-AFL 1.000, ph 1.000, orp 1.000, turbWETntu0 1.000                                                                                                   
# file_type = ascii
*END*
     -0.545 4.1536e-09     6.2203     96.943      0.335   0.298321    -0.6317      6.696   612.1907 2.4063e+02    -3.2120     -0.535     -0.776    19.5646   998.2993 0.0000e+00
     -0.545 4.5689e-08     6.2191     96.934      0.347   0.309831    -0.6356      6.697   608.9044 2.4091e+02    -3.1713     -0.535     -0.775    19.5652   998.2991 0.0000e+00
     -0.545 8.3764e-08     6.2202     96.936      0.362   0.322398    -0.5518      6.697   606.8348 2.3802e+02    -2.6493     -0.535     -0.776    19.5655   998.2991 0.0000e+00
     -0.545 4.5689e-08     6.2224     96.945      0.363   0.323550    -0.3998      6.696   605.9247 2.3560e+02    -1.7183     -0.535     -0.775    19.5656   998.2990 0.0000e+00
     -0.545 4.1535e-09     6.2208     96.940      0.363   0.323767    -0.3313      6.696   605.2993 2.3500e+02    -1.1891     -0.535     -0.776    19.5659   998.2990 0.0000e+00
     -0.545 3.7760e-10     6.2202     96.939      0.365   0.325024    -0.3393      6.697   604.0921 2.3686e+02    -1.1335     -0.535     -0.776    19.5660   998.2990 0.0000e+00
     -0.545 3.4327e-11     6.2202     96.958      0.380   0.338746    -0.3412      6.697   602.9439 2.4032e+02    -1.1777     -0.535     -0.776    19.5661   998.2990 0.0000e+00
     -0.545 3.1207e-12     6.2217     96.965      0.408   0.362957    -0.3702      6.696   602.6879 2.4012e+02    -1.7564     -0.535     -0.775    19.5668   998.2988 0.0000e+00
     -0.545 2.8450e-13     6.2208     96.951      0.409   0.364318    -0.4310      6.695   602.6306 2.3771e+02    -2.8539     -0.535     -0.775    19.5676   998.2986 0.0000e+00
     -0.545 3.4623e-14     6.2193     96.936      0.399   0.355207    -0.4600      6.695   601.9069 2.3692e+02    -3.4357     -0.535     -0.776    19.5682   998.2985 0.0000e+00
     -0.545 9.9500e-14     6.2224     96.922      0.426   0.379512    -0.4520      6.698   600.8208 2.3597e+02    -3.3839     -0.536     -0.777    19.5698   998.2982 0.0000e+00
     -0.545 1.0689e-12     6.2223     96.917      0.454   0.404752    -0.4472      6.698   600.4258 2.3792e+02    -2.9492     -0.535     -0.776    19.5719   998.2978 0.0000e+00
     -0.546 1.1756e-11     6.2203     96.927      0.456   0.406943    -0.4545      6.695   600.4008 2.6827e+02    -2.2427     -0.535     -0.776    19.5741   998.2973 0.0000e+00
     -0.546 1.2931e-10     6.2195     96.922      0.456   0.406009    -0.4625      6.694   600.1743 3.2792e+02    -1.8878     -0.536     -0.777    19.5766   998.2968 0.0000e+00
     -0.546 1.4225e-09     6.2181     96.903      0.442   0.393460    -0.4475      6.694   600.6121 3.8182e+02    -1.8707     -0.536     -0.777    19.5777   998.2966 0.0000e+00
     -0.546 1.5647e-08     6.2170     96.903      0.429   0.381933    -0.2733      6.693   601.4786 4.2676e+02    -1.8055     -0.535     -0.776    19.5781   998.2965 0.0000e+00
     -0.546 1.7212e-07     6.2194     96.915      0.441   0.393357     0.0310      6.693   602.0476 4.6748e+02    -1.6900     -0.535     -0.776    19.5782   998.2965 0.0000e+00
     -0.546      0.000     6.2187     96.921      0.454   0.404866     0.1882      6.694   603.3614 5.0198e+02    -1.6205     -0.535     -0.776    19.5781   998.2965 0.0000e+00
     -0.546      0.000     6.2161     96.929      0.442   0.394359     0.2054      6.696   606.4368 5.2984e+02    -1.6207     -0.535     -0.776    19.5784   998.2964 0.0000e+00
     -0.546      0.000     6.2166     96.941      0.441   0.393037     0.2309      6.699   610.2361 5.4963e+02    -2.1514     -0.535     -0.776    19.5789   998.2964 0.0000e+00
     -0.546      0.003     6.2181     96.934      0.436   0.388888     0.2620      6.700   613.9371 5.7712e+02    -3.2191     -0.535     -0.776    19.5785   998.2964 0.0000e+00
     -0.546      0.008     6.2179     96.918      0.386   0.344189     0.2783      6.700   619.7806 6.2962e+02    -3.8470     -0.535     -0.776    19.5797   998.2962 0.0000e+00
     -0.546      0.015     6.2178     96.910      0.611   0.549534     0.2805      6.706   647.4198 6.9310e+02    -3.9431     -0.535     -0.776    19.5795   998.2962 0.0000e+00
     -0.544      0.024     6.2201     96.910      4.165   3.758719     0.2617      6.775   811.6625 7.3169e+02    -3.8569     -0.535     -0.776    19.5814   998.2960 0.0000e+00
     -0.537      0.035     6.2191     96.920     12.393  11.196411     0.1637      6.925  1080.5795 7.4891e+02    -2.6407     -0.530     -0.768    19.5783   998.2964 0.0000e+00
     -0.524      0.047     6.2101     96.931     23.430  21.200243     0.0066      7.106  1195.0876 7.5471e+02    -0.4136     -0.512     -0.743    19.6381   998.2846 0.0000e+00
     -0.510      0.062     6.1884     96.931     34.138  30.925832    -0.0767      7.360   899.2144 7.5352e+02     0.8193     -0.498     -0.722    19.8113   998.2492 0.0000e+00
     -0.495      0.077     6.1669     96.918     39.193  35.533757    -0.0803      7.702   339.9159 7.9672e+02     0.9925     -0.489     -0.710    19.9849   998.2144 0.0000e+00
     -0.475      0.089     6.1522     96.909     39.676  35.993223    -0.0545      8.021    48.7845 8.9869e+02     1.4509     -0.467     -0.677    20.1120   998.1902 0.0000e+00
     -0.448      0.097     6.1404     96.909     39.708  36.036932     0.0005      8.247    41.7406 9.9794e+02     2.2651     -0.440     -0.638    20.2160   998.1716 0.0000e+00
     -0.418      0.103     6.1315     96.912     39.725  36.062253     0.0390      8.401    53.8468 1.0390e+03     2.7426     -0.412     -0.597    20.2880   998.1616 0.0000e+00
     -0.386      0.108     6.1248     96.927     39.767  36.108977     0.0636      8.506    62.7457 1.0316e+03     3.0954     -0.377     -0.546    20.3306   998.1537 0.0000e+00
     -0.357      0.109     6.1210     96.985     39.811  36.157577     0.3679      8.552    67.8576 1.0261e+03     6.4324     -0.347     -0.503    20.3576   998.1476 0.0000e+00
     -0.333      0.104     6.1191     97.092     39.856  36.205591     0.9442      8.529    71.1712 1.0516e+03    12.5463     -0.327     -0.476    20.3747   998.1445 0.0000e+00
     -0.308      0.096     6.1182     97.243     39.896  36.245211     1.2656      8.471    74.1597 1.1118e+03    15.8968     -0.304     -0.441    20.3861   998.1421 0.0000e+00
     -0.280      0.086     6.1164     97.428     39.910  36.255794     1.2967      8.445    75.7704 1.1952e+03    16.0723     -0.273     -0.396    20.3955   998.1403 0.0000e+00
     -0.255      0.077     6.1191     97.622     39.863  36.206608     1.3127      8.465    78.0844 1.2720e+03    14.4386     -0.247     -0.358    20.4068   998.1380 0.0000e+00
     -0.237      0.068     6.1245     97.818     39.751  36.094799     1.3462      8.506    81.4878 1.3150e+03    11.3831     -0.229     -0.332    20.4191   998.1356 0.0000e+00
     -0.227      0.060     6.1334     97.991     39.710  36.046393     1.3633      8.566    82.6773 1.3286e+03     9.7052     -0.223     -0.323    20.4228   998.1348 0.0000e+00
     -0.217      0.057     6.1471     98.115     39.810  36.129086     1.3633      8.642    81.5402 1.3341e+03     9.5539     -0.215     -0.311    20.4184   998.1357 0.0000e+00
     -0.203      0.066     6.1595     98.199     39.903  36.206021     1.4063      8.711    80.8168 1.4054e+03     9.5530     -0.198     -0.287    20.4096   998.1377 0.0000e+00
     -0.191      0.084     6.1744     98.282     39.857  36.151471     1.4940      8.755    81.7601 1.5959e+03     9.5645     -0.187     -0.271    20.3968   998.1404 0.0000e+00
     -0.176      0.103     6.1879     98.407     39.754  36.040747     1.5395      8.772    83.7388 1.7834e+03     9.5620     -0.179     -0.258    20.3815   998.1436 0.0000e+00
     -0.146      0.114     6.1967     98.612     39.737  36.009734     1.5405      8.771    85.7263 1.8518e+03     9.5218     -0.151     -0.220    20.3722   998.1457 0.0000e+00
     -0.100      0.119     6.2019     98.898     39.767  36.030361     1.5399      8.762    87.1211 1.8175e+03     9.4713     -0.100     -0.145    20.3652   998.1475 0.0000e+00
     -0.052      0.121     6.2080     99.213     39.775  36.036251     1.5678      8.755    88.3001 1.7280e+03     9.3128     -0.045     -0.064    20.3495   998.1511 0.0000e+00
     -0.020      0.120     6.2182     99.485     39.759  36.017474     1.6263      8.750    89.6561 1.6502e+03     9.0138     -0.011     -0.018    20.3230   998.1567 0.0000e+00
     -0.004      0.113     6.2338     99.771     39.746  35.993742     1.6578      8.745    90.9543 1.6028e+03     8.8392     -0.004     -0.006    20.3007   998.1614 0.0000e+00
      0.011      0.100     6.2533    100.116     39.781  36.003174     1.6709      8.739    91.8657 1.3056e+03     8.8074      0.004      0.005    20.2955   998.1625 0.0000e+00
      0.040      0.085     6.2766    100.407     39.817  36.004542     1.7585      8.732    91.0389 8.9480e+02     8.7935      0.036      0.051    20.2967   998.1625 0.0000e+00
      0.075      0.075     6.2919    100.592     39.806  35.946772     1.9105      8.723    88.8738 9.1453e+02     8.8019      0.081      0.117    20.2945   998.1631 0.0000e+00
      0.098      0.065     6.3078    100.686     39.806  35.875857     1.9830      8.710    89.9501 9.6807e+02     8.8103      0.103      0.149    20.2813   998.1659 0.0000e+00
      0.106      0.051     6.3403    100.555     39.856  35.845206     1.9680      8.695    94.4152 6.9316e+02     8.8290      0.104      0.151    20.2492   998.1727 0.0000e+00
      0.111      0.033     6.3627     99.755     39.907  35.829943     1.8844      8.680    97.4322 4.6253e+02     8.7986      0.108      0.156    20.2124   998.1804 0.0000e+00
      0.116      0.018     6.3804     97.850     39.943  35.818174     1.7525      8.665    98.5522 4.5907e+02     8.7047      0.115      0.167    20.1607   998.1912 0.0000e+00
      0.121      0.009     6.3995     94.845     39.993  35.829800     1.6906      8.649    99.6122 6.0219e+02     8.6448      0.120      0.175    20.0622   998.2116 0.0000e+00
      0.121      0.004     6.4168     91.134     40.035  35.843525     1.6836      8.631   100.6127 8.5179e+02     8.6313      0.121      0.174    19.9529   998.2342 0.0000e+00
      0.119     -0.001     6.3896     87.238     40.070  35.857148     1.7026      8.613   101.3561 1.0703e+03     8.7385      0.116      0.168    19.8789   998.2494 0.0000e+00
      0.119     -0.004     6.2714     83.542     40.099  35.867547     1.7549      8.595   102.1469 1.1092e+03     8.9580      0.116      0.168    19.8286   998.2597 0.0000e+00
      0.120     -0.005     6.0763     80.349     40.087  35.842295     1.7873      8.579   103.1196 1.0966e+03     9.0895      0.120      0.173    19.7867   998.2682 0.0000e+00
      0.116     -0.005     5.8277     77.951     40.061  35.805694     1.7903      8.569   103.9964 1.1257e+03     9.1150      0.114      0.166    19.7570   998.2742 0.0000e+00
      0.112     -0.004     5.5738     76.450     40.072  35.805809     1.7830      8.562   104.6608 1.1355e+03     9.0701      0.107      0.155    19.7384   998.2780 0.0000e+00
      0.112     -0.002     5.3337     75.715     40.122  35.843683     1.7858      8.556   105.3886 1.0808e+03     8.9729      0.110      0.159    19.7192   998.2820 0.0000e+00
