* Sea-Bird SBE19plus  Data File:
* FileName = C:\DATA\101619_unknown_0007.hex
* Software version 2.8.0.119 SB_Terminal.dll
* Temperature SN = 7809
* Conductivity SN = 7809
* System UpLoad Time = Oct 16 2019 07:57:06
* <ApplicationData>
* <Seaterm232>
* <SoftwareVersion>2.8.0.119</SoftwareVersion>
* <BuildDate>07-Nov-2018</BuildDate>
* </Seaterm232>
* </ApplicationData>
* cast   7 11 Oct 2019 12:49:43 samples 6625 to 7246, avg = 1, stop = mag switch
# nquan = 16
# nvalues = 423                         
# units = specified
# name 0 = depFM: Depth [fresh water, m]
# name 1 = dz/dtM: Descent Rate [m/s]
# name 2 = sbeox0ML/L: Oxygen, SBE 43 [ml/l]
# name 3 = sbeox0PS: Oxygen, SBE 43 [% saturation]
# name 4 = specc: Specific Conductance [uS/cm]
# name 5 = c0uS/cm: Conductivity [uS/cm]
# name 6 = flECO-AFL: Fluorescence, WET Labs ECO-AFL/FL [mg/m^3]
# name 7 = ph: pH
# name 8 = orp: Oxidation Reduction Potential [mV]
# name 9 = par/sat/log: PAR/Logarithmic, Satlantic
# name 10 = turbWETntu0: Turbidity, WET Labs ECO [NTU]
# name 11 = prdM: Pressure, Strain Gauge [db]
# name 12 = prdE: Pressure, Strain Gauge [psi]
# name 13 = tv290C: Temperature [ITS-90, deg C]
# name 14 = density00: Density [density, kg/m^3]
# name 15 = flag:  0.000e+00
# span 0 =     -0.541,      5.456       
# span 1 =     -0.021,      0.283       
# span 2 =    -1.0075,     6.3800       
# span 3 =    -14.025,     99.723       
# span 4 =      4.500,    113.559       
# span 5 =   3.992361,  95.772486       
# span 6 =    -1.2853,     4.3225       
# span 7 =      6.479,      7.848       
# span 8 =    35.7898,   312.0912       
# span 9 = 1.2357e-01, 1.3186e+03       
# span 10 =    -0.0087,    15.6801      
# span 11 =     -0.532,      5.352      
# span 12 =     -0.772,      7.762      
# span 13 =    13.1740,    20.2228      
# span 14 =   998.1777,   999.4055      
# span 15 = 0.0000e+00, 0.0000e+00      
# interval = seconds: 0.25
# start_time = Oct 11 2019 12:49:43 [Instrument's time stamp, header]
# bad_flag = -9.990e-29
# <Sensors count="9" >
#   <sensor Channel="1" >
#     <!-- Count, Temperature -->
#     <TemperatureSensor SensorID="58" >
#       <SerialNumber>7809</SerialNumber>
#       <CalibrationDate>24-Mar-19</CalibrationDate>
#       <A0>1.21792325e-003</A0>
#       <A1>2.81669265e-004</A1>
#       <A2>-1.60333336e-006</A2>
#       <A3>1.98414625e-007</A3>
#       <Slope>1.00000000</Slope>
#       <Offset>0.0000</Offset>
#     </TemperatureSensor>
#   </sensor>
#   <sensor Channel="2" >
#     <!-- Frequency 0, Conductivity -->
#     <ConductivitySensor SensorID="3" >
#       <SerialNumber>7809</SerialNumber>
#       <CalibrationDate>24-Mar-19</CalibrationDate>
#       <UseG_J>1</UseG_J>
#       <!-- Cell const and series R are applicable only for wide range sensors. -->
#       <SeriesR>0.0000</SeriesR>
#       <CellConst>2000.0000</CellConst>
#       <ConductivityType>0</ConductivityType>
#       <Coefficients equation="0" >
#         <A>0.00000000e+000</A>
#         <B>0.00000000e+000</B>
#         <C>0.00000000e+000</C>
#         <D>0.00000000e+000</D>
#         <M>0.0</M>
#         <CPcor>-9.57000000e-008</CPcor>
#       </Coefficients>
#       <Coefficients equation="1" >
#         <G>-1.00589325e+000</G>
#         <H>1.26816302e-001</H>
#         <I>-1.51560448e-004</I>
#         <J>2.67137274e-005</J>
#         <CPcor>-9.57000000e-008</CPcor>
#         <CTcor>3.2500e-006</CTcor>
#         <!-- WBOTC not applicable unless ConductivityType = 1. -->
#         <WBOTC>0.00000000e+000</WBOTC>
#       </Coefficients>
#       <Slope>1.00000000</Slope>
#       <Offset>0.00000</Offset>
#     </ConductivitySensor>
#   </sensor>
#   <sensor Channel="3" >
#     <!-- Count, Pressure, Strain Gauge -->
#     <PressureSensor SensorID="46" >
#       <SerialNumber>7809</SerialNumber>
#       <CalibrationDate>11-Mar-19</CalibrationDate>
#       <PA0>4.56561833e-002</PA0>
#       <PA1>4.85095118e-004</PA1>
#       <PA2>-2.88327090e-012</PA2>
#       <PTEMPA0>-5.48784562e+001</PTEMPA0>
#       <PTEMPA1>5.53756816e+001</PTEMPA1>
#       <PTEMPA2>-5.86727098e-001</PTEMPA2>
#       <PTCA0>5.25246745e+005</PTCA0>
#       <PTCA1>1.22304214e+001</PTCA1>
#       <PTCA2>-3.56745036e-001</PTCA2>
#       <PTCB0>2.51668750e+001</PTCB0>
#       <PTCB1>3.75000000e-004</PTCB1>
#       <PTCB2>0.00000000e+000</PTCB2>
#       <Offset>0.000000</Offset>
#     </PressureSensor>
#   </sensor>
#   <sensor Channel="4" >
#     <!-- A/D voltage 0, Oxygen, SBE 43 -->
#     <OxygenSensor SensorID="38" >
#       <SerialNumber>0434</SerialNumber>
#       <CalibrationDate>13-Apr-19</CalibrationDate>
#       <Use2007Equation>1</Use2007Equation>
#       <CalibrationCoefficients equation="0" >
#         <!-- Coefficients for Owens-Millard equation. -->
#         <Boc>0.0000</Boc>
#         <Soc>0.0000e+000</Soc>
#         <offset>0.0000</offset>
#         <Pcor>0.00e+000</Pcor>
#         <Tcor>0.0000</Tcor>
#         <Tau>0.0</Tau>
#       </CalibrationCoefficients>
#       <CalibrationCoefficients equation="1" >
#         <!-- Coefficients for Sea-Bird equation - SBE calibration in 2007 and later. -->
#         <Soc>4.2007e-001</Soc>
#         <offset>-0.6109</offset>
#         <A>-4.3656e-003</A>
#         <B> 1.7017e-004</B>
#         <C>-2.5341e-006</C>
#         <D0> 2.5826e+000</D0>
#         <D1> 1.92634e-004</D1>
#         <D2>-4.64803e-002</D2>
#         <E> 3.6000e-002</E>
#         <Tau20> 1.1800</Tau20>
#         <H1>-3.3000e-002</H1>
#         <H2> 5.0000e+003</H2>
#         <H3> 1.4500e+003</H3>
#       </CalibrationCoefficients>
#     </OxygenSensor>
#   </sensor>
#   <sensor Channel="5" >
#     <!-- A/D voltage 1, PAR/Logarithmic, Satlantic -->
#     <PARLog_SatlanticSensor SensorID="76" >
#       <SerialNumber>1122</SerialNumber>
#       <CalibrationDate>08-May-2019</CalibrationDate>
#       <a0>9.7456e-001</a0>
#       <a1>8.1640e-001</a1>
#       <Im>1.3589e+000</Im>
#       <Multiplier>1.0000e+000</Multiplier>
#     </PARLog_SatlanticSensor>
#   </sensor>
#   <sensor Channel="6" >
#     <!-- A/D voltage 2, pH -->
#     <pH_Sensor SensorID="43" >
#       <SerialNumber>0363</SerialNumber>
#       <CalibrationDate>15-Apr-19</CalibrationDate>
#       <Slope>4.5952</Slope>
#       <Offset>2.5370</Offset>
#     </pH_Sensor>
#   </sensor>
#   <sensor Channel="7" >
#     <!-- A/D voltage 3, Oxidation Reduction Potential -->
#     <OxidationReductionPotentialSensor SensorID="41" >
#       <SerialNumber>0363</SerialNumber>
#       <CalibrationDate>15-Apr-19</CalibrationDate>
#       <B>2.499480</B>
#       <M>-0.496195</M>
#       <Offset>0.0</Offset>
#     </OxidationReductionPotentialSensor>
#   </sensor>
#   <sensor Channel="8" >
#     <!-- A/D voltage 4, Fluorometer, WET Labs ECO-AFL/FL -->
#     <FluoroWetlabECO_AFL_FL_Sensor SensorID="20" >
#       <SerialNumber>FLNTURT-2496</SerialNumber>
#       <CalibrationDate>08-May-2019</CalibrationDate>
#       <ScaleFactor>5.00000000e+001</ScaleFactor>
#       <!-- Dark output -->
#       <Vblank>0.0550</Vblank>
#     </FluoroWetlabECO_AFL_FL_Sensor>
#   </sensor>
#   <sensor Channel="9" >
#     <!-- A/D voltage 5, Turbidity Meter, WET Labs, ECO-NTU -->
#     <TurbidityMeter SensorID="67" >
#       <SerialNumber>FLNTURT-2496</SerialNumber>
#       <CalibrationDate>08-May-2019</CalibrationDate>
#       <ScaleFactor>189.000000</ScaleFactor>
#       <!-- Dark output -->
#       <DarkVoltage>0.071000</DarkVoltage>
#     </TurbidityMeter>
#   </sensor>
# </Sensors>
# datcnv_date = Oct 16 2019 08:03:38, 7.26.7.129 [datcnv_vars = 15]
# datcnv_in = C:\DATA\101119_fcr30.hex C:\DATA\SBE19plusV2_7809.xmlcon
# datcnv_skipover = 0
# datcnv_ox_hysteresis_correction = yes
# datcnv_ox_tau_correction = yes
# filter_date = Oct 16 2019 08:04:04, 7.26.7.129
# filter_in = C:\DATA\101119_fcr30.cnv
# filter_low_pass_tc_A = 0.030
# filter_low_pass_tc_B = 0.150
# filter_low_pass_A_vars = sbeox0ML/L prdM prdE tv290C density00
# filter_low_pass_B_vars = depFM dz/dtM sbeox0PS specc c0uS/cm flECO-AFL ph orp par/sat/log turbWETntu0
# alignctd_date = Oct 16 2019 08:04:28, 7.26.7.129
# alignctd_in = C:\DATA\101119_fcr30.cnv
# alignctd_adv = dz/dtM 1.000, sbeox0PS 1.000, specc 1.000, c0uS/cm 1.000, flECO-AFL 1.000, ph 1.000, orp 1.000, turbWETntu0 1.000                                                                                                   
# file_type = ascii
*END*
     -0.541 3.8430e-07     6.2548     95.956      6.775   5.965531    -0.1221      6.546   312.0912 2.5728e+02    -0.0087     -0.531     -0.770    18.7754   998.4560 0.0000e+00
     -0.541      0.000     6.2541     95.952      5.725   5.051971    -0.1214      6.555   310.8873 2.8260e+02     0.0181     -0.531     -0.770    18.7936   998.4522 0.0000e+00
     -0.541      0.000     6.2428     95.935      4.699   4.160189    -0.1186      6.559   309.3075 3.2761e+02     0.0254     -0.531     -0.771    18.8756   998.4360 0.0000e+00
     -0.541      0.001     6.2324     95.927      4.500   3.992361    -0.0888      6.549   250.0566 3.8261e+02     0.1122     -0.531     -0.770    18.9596   998.4202 0.0000e+00
     -0.541      0.006     6.2277     95.939      4.833   4.290197    -0.0382      6.555   145.9156 4.3353e+02     0.1832     -0.531     -0.770    19.0070   998.4114 0.0000e+00
     -0.541      0.022     6.2136     95.950     11.019   9.789132    -0.0099      6.691   129.7682 4.6482e+02     0.1951     -0.531     -0.771    19.1172   998.3892 0.0000e+00
     -0.541      0.051     6.1889     95.959     25.044  22.292189    -0.0320      6.985   179.2325 4.5850e+02     0.3547     -0.530     -0.769    19.3011   998.3524 0.0000e+00
     -0.538      0.089     6.1782     95.989     36.475  32.568433    -0.3571      7.300   199.3555 4.1340e+02     2.1132     -0.532     -0.772    19.3773   998.3376 0.0000e+00
     -0.521      0.133     6.1802     96.034     39.994  35.850667    -0.9591      7.540   198.4142 4.3949e+02     5.2995     -0.524     -0.759    19.3768   998.3371 0.0000e+00
     -0.475      0.181     6.1824     96.066     40.318  36.278107    -1.2853      7.696   196.0722 6.0745e+02     7.0253     -0.473     -0.686    19.3662   998.3402 0.0000e+00
     -0.410      0.229     6.1760     96.107     40.267  36.340377    -1.2667      7.784   194.9573 8.0867e+02     7.2497     -0.401     -0.581    19.4098   998.3380 0.0000e+00
     -0.340      0.266     6.1535     96.232     40.147  36.286350    -0.6047      7.828   194.5706 9.4859e+02     8.0786     -0.333     -0.484    19.6095   998.3023 0.0000e+00
     -0.266      0.283     6.1309     96.529     40.057  36.196199     0.6416      7.846   194.0645 1.0006e+03     9.5423     -0.268     -0.389    19.8263   998.2585 0.0000e+00
     -0.180      0.278     6.1121     97.012     40.045  36.138958     1.3263      7.848   193.3114 1.0300e+03    10.2974     -0.178     -0.258    19.9917   998.2250 0.0000e+00
     -0.093      0.255     6.0948     97.615     40.059  36.101960     1.3893      7.843   192.5201 1.1308e+03    10.3597     -0.082     -0.119    20.1440   998.1939 0.0000e+00
     -0.023      0.221     6.0903     98.253     40.067  36.066154     1.4630      7.833   191.7245 1.2491e+03    10.6222     -0.015     -0.023    20.2228   998.1777 0.0000e+00
      0.026      0.179     6.1127     98.836     40.063  36.023325     1.6027      7.822   190.7474 1.3186e+03    11.0793      0.032      0.045    20.1904   998.1847 0.0000e+00
      0.059      0.136     6.1549     99.319     40.041  35.964894     1.6832      7.810   188.4493 1.2202e+03    11.3320      0.061      0.089    20.1155   998.2004 0.0000e+00
      0.082      0.101     6.2019     99.666     40.042  35.930863     1.6990      7.797   184.4150 1.1403e+03    11.3503      0.084      0.121    20.0530   998.2134 0.0000e+00
      0.096      0.076     6.2520     99.723     40.065  35.929166     1.7932      7.783   181.0315 1.2686e+03    11.2677      0.095      0.136    19.9999   998.2245 0.0000e+00
      0.106      0.062     6.2954     99.091     40.090  35.944344     1.9636      7.770   179.3744 1.2691e+03    11.1524      0.101      0.146    19.9536   998.2340 0.0000e+00
      0.121      0.059     6.3326     97.407     40.137  35.987427     2.0508      7.760   178.4899 1.1217e+03    11.1035      0.118      0.172    19.9051   998.2440 0.0000e+00
      0.136      0.067     6.3630     94.769     40.152  36.005773     2.0597      7.749   177.9078 1.0868e+03    11.1030      0.136      0.198    19.8547   998.2544 0.0000e+00
      0.147      0.079     6.3800     91.580     40.116  35.975767     2.0617      7.737   177.4990 1.0935e+03    11.0478      0.144      0.209    19.8266   998.2602 0.0000e+00
      0.163      0.093     6.3541     88.287     40.085  35.941986     2.0323      7.726   177.1605 9.2871e+02    10.7303      0.153      0.221    19.8202   998.2616 0.0000e+00
      0.193      0.105     6.2396     85.145     40.073  35.914674     1.9902      7.716   176.9120 6.9098e+02    10.2140      0.187      0.272    19.8256   998.2607 0.0000e+00
      0.229      0.115     6.0612     82.229     40.085  35.899407     1.9852      7.707   176.9902 5.4818e+02     9.9178      0.226      0.327    19.8343   998.2591 0.0000e+00
      0.263      0.123     5.8460     79.741     40.098  35.884289     1.9988      7.697   177.2455 4.8987e+02     9.8689      0.256      0.373    19.8374   998.2586 0.0000e+00
      0.295      0.124     5.6288     77.803     40.091  35.858787     2.0160      7.685   177.3322 4.8154e+02     9.8191      0.291      0.422    19.8337   998.2595 0.0000e+00
      0.326      0.116     5.4349     76.373     40.089  35.844918     2.0452      7.674   177.4357 4.7459e+02     9.7422      0.319      0.462    19.8121   998.2640 0.0000e+00
      0.358      0.104     5.2433     75.383     40.097  35.843533     2.0666      7.665   177.7230 4.8110e+02     9.7262      0.351      0.509    19.7733   998.2721 0.0000e+00
      0.388      0.091     5.0860     74.690     40.108  35.842037     2.0841      7.656   178.0526 5.0035e+02     9.7557      0.384      0.558    19.7366   998.2797 0.0000e+00
      0.410      0.080     4.9673     74.216     40.114  35.826809     2.1437      7.647   178.2368 4.7599e+02     9.8375      0.406      0.589    19.7140   998.2844 0.0000e+00
      0.422      0.070     4.8762     73.988     40.104  35.786328     2.2501      7.640   178.3163 4.5322e+02     9.9939      0.414      0.600    19.7000   998.2873 0.0000e+00
      0.433      0.062     4.8192     73.965     40.082  35.733366     2.3121      7.633   178.4108 4.4825e+02    10.1073      0.420      0.609    19.6911   998.2892 0.0000e+00
      0.448      0.056     4.7778     74.064     40.071  35.694176     2.3131      7.626   178.3475 3.9974e+02    10.1590      0.439      0.638    19.6820   998.2911 0.0000e+00
      0.464      0.051     4.7471     74.271     40.095  35.693264     2.3231      7.620   178.2381 3.5889e+02    10.1925      0.457      0.662    19.6566   998.2962 0.0000e+00
      0.479      0.045     4.7381     74.569     40.145  35.722318     2.3460      7.613   178.2928 3.4229e+02    10.1850      0.468      0.679    19.6131   998.3051 0.0000e+00
      0.494      0.036     4.7443     74.908     40.163  35.728078     2.3558      7.606   178.3207 3.1939e+02    10.1665      0.487      0.705    19.5676   998.3143 0.0000e+00
      0.504      0.024     4.7529     75.246     40.136  35.699432     2.3548      7.599   178.2314 3.0736e+02    10.1656      0.498      0.723    19.5316   998.3216 0.0000e+00
      0.505      0.012     4.7692     75.491     40.129  35.693302     2.3431      7.592   178.2458 3.0876e+02    10.0757      0.496      0.722    19.5050   998.3271 0.0000e+00
      0.503      0.002     4.7922     75.544     40.153  35.717431     2.3180      7.586   178.4086 3.1207e+02     9.8662      0.493      0.713    19.4841   998.3312 0.0000e+00
      0.501     -0.005     4.8153     75.425     40.171  35.737303     2.3025      7.579   178.5645 3.0883e+02     9.6974      0.492      0.714    19.4709   998.3339 0.0000e+00
      0.498     -0.007     4.8396     75.265     40.171  35.743173     2.2938      7.572   178.6687 3.0679e+02     9.6414      0.489      0.709    19.4670   998.3347 0.0000e+00
      0.494     -0.005     4.8587     75.186     40.143  35.724937     2.2038      7.567   178.6366 3.0866e+02     9.6140      0.484      0.702    19.4680   998.3344 0.0000e+00
      0.492     -0.002     4.8613     75.230     40.113  35.707225     2.0390      7.562   178.6056 3.0347e+02     9.5625      0.482      0.700    19.4714   998.3338 0.0000e+00
      0.492      0.002     4.8493     75.380     40.116  35.719440     1.9490      7.557   178.6390 2.9775e+02     9.5100      0.482      0.699    19.4767   998.3327 0.0000e+00
      0.494      0.006     4.8350     75.603     40.131  35.745710     1.9380      7.552   178.6097 2.9843e+02     9.4712      0.484      0.702    19.4836   998.3313 0.0000e+00
      0.497      0.008     4.8285     75.853     40.142  35.770988     1.9322      7.547   178.6818 3.0313e+02     9.4534      0.487      0.707    19.4924   998.3296 0.0000e+00
      0.501      0.008     4.8309     76.052     40.126  35.771204     1.9308      7.543   178.8228 3.0986e+02     9.4599      0.490      0.713    19.5025   998.3275 0.0000e+00
      0.504      0.007     4.8404     76.147     40.085  35.748342     1.9390      7.539   178.8509 3.1718e+02     9.4834      0.494      0.717    19.5144   998.3252 0.0000e+00
      0.505      0.006     4.8535     76.120     40.073  35.748465     1.9450      7.536   178.8499 3.2123e+02     9.4755      0.496      0.719    19.5308   998.3219 0.0000e+00
      0.505      0.003     4.8701     75.943     40.089  35.772707     1.9419      7.532   178.8968 3.2380e+02     9.4302      0.495      0.720    19.5510   998.3178 0.0000e+00
      0.505      0.000     4.8824     75.632     40.098  35.787583     1.9710      7.529   178.9016 3.2797e+02     9.4276      0.495      0.719    19.5708   998.3138 0.0000e+00
      0.505     -0.001     4.8861     75.273     40.112  35.801402     2.0275      7.526   178.8223 3.2748e+02     9.4767      0.496      0.720    19.5865   998.3106 0.0000e+00
      0.505     -0.001     4.8849     74.939     40.126  35.812848     2.0537      7.522   178.7973 3.2213e+02     9.5321      0.495      0.718    19.5996   998.3080 0.0000e+00
      0.504      0.003     4.8718     74.692     40.111  35.799028     2.0540      7.517   178.9435 3.1964e+02     9.5406      0.494      0.717    19.6138   998.3051 0.0000e+00
      0.503      0.008     4.8482     74.577     40.071  35.761253     2.0567      7.512   179.2136 3.2086e+02     9.5131      0.493      0.714    19.6235   998.3032 0.0000e+00
      0.503      0.013     4.8238     74.547     40.051  35.736924     2.0601      7.507   179.3970 3.2214e+02     9.4946      0.491      0.712    19.6233   998.3032 0.0000e+00
      0.507      0.014     4.8018     74.510     40.082  35.758745     2.0616      7.502   179.2670 3.1905e+02     9.4811      0.495      0.719    19.6200   998.3038 0.0000e+00
      0.516      0.010     4.7836     74.401     40.100  35.771201     2.0647      7.498   179.1053 3.1711e+02     9.4481      0.506      0.735    19.6205   998.3037 0.0000e+00
      0.526      0.003     4.7782     74.189     40.091  35.760577     2.0630      7.493   179.2481 3.1948e+02     9.2272      0.518      0.752    19.6196   998.3040 0.0000e+00
      0.530     -0.006     4.7797     73.909     40.093  35.757234     2.0590      7.487   179.4455 3.1940e+02     8.9082      0.523      0.759    19.6106   998.3059 0.0000e+00
