* Sea-Bird SBE19plus  Data File:
* FileName = C:\DATA\102319_fcr_0003.hex
* Software version 2.8.0.119 SB_Terminal.dll
* Temperature SN = 7809
* Conductivity SN = 7809
* System UpLoad Time = Oct 23 2019 15:56:09
* <ApplicationData>
* <Seaterm232>
* <SoftwareVersion>2.8.0.119</SoftwareVersion>
* <BuildDate>07-Nov-2018</BuildDate>
* </Seaterm232>
* </ApplicationData>
* cast   3 23 Oct 2019 11:20:51 samples 886 to 1336, avg = 1, stop = mag switch
# nquan = 16
# nvalues = 299                         
# units = specified
# name 0 = depFM: Depth [fresh water, m]
# name 1 = dz/dtM: Descent Rate [m/s]
# name 2 = sbeox0ML/L: Oxygen, SBE 43 [ml/l]
# name 3 = sbeox0PS: Oxygen, SBE 43 [% saturation]
# name 4 = specc: Specific Conductance [uS/cm]
# name 5 = c0uS/cm: Conductivity [uS/cm]
# name 6 = flECO-AFL: Fluorescence, WET Labs ECO-AFL/FL [mg/m^3]
# name 7 = ph: pH
# name 8 = orp: Oxidation Reduction Potential [mV]
# name 9 = par/sat/log: PAR/Logarithmic, Satlantic
# name 10 = turbWETntu0: Turbidity, WET Labs ECO [NTU]
# name 11 = prdM: Pressure, Strain Gauge [db]
# name 12 = prdE: Pressure, Strain Gauge [psi]
# name 13 = tv290C: Temperature [ITS-90, deg C]
# name 14 = density00: Density [density, kg/m^3]
# name 15 = flag:  0.000e+00
# span 0 =     -0.375,      5.406       
# span 1 =     -0.017,      0.211       
# span 2 =     1.8528,     7.0761       
# span 3 =     25.718,     99.424       
# span 4 =     40.735,     55.468       
# span 5 =  32.257156,  43.083843       
# span 6 =     0.6647,     3.0313       
# span 7 =      6.776,      7.775       
# span 8 =   272.6958,   306.8771       
# span 9 = 1.2359e-01, 1.2992e+03       
# span 10 =     7.4163,    12.3540      
# span 11 =     -0.381,      5.302      
# span 12 =     -0.551,      7.691      
# span 13 =    13.8176,    14.7194      
# span 14 =   999.1612,   999.3183      
# span 15 = 0.0000e+00, 0.0000e+00      
# interval = seconds: 0.25
# start_time = Oct 23 2019 11:20:51 [Instrument's time stamp, header]
# bad_flag = -9.990e-29
# <Sensors count="9" >
#   <sensor Channel="1" >
#     <!-- Count, Temperature -->
#     <TemperatureSensor SensorID="58" >
#       <SerialNumber>7809</SerialNumber>
#       <CalibrationDate>24-Mar-19</CalibrationDate>
#       <A0>1.21792325e-003</A0>
#       <A1>2.81669265e-004</A1>
#       <A2>-1.60333336e-006</A2>
#       <A3>1.98414625e-007</A3>
#       <Slope>1.00000000</Slope>
#       <Offset>0.0000</Offset>
#     </TemperatureSensor>
#   </sensor>
#   <sensor Channel="2" >
#     <!-- Frequency 0, Conductivity -->
#     <ConductivitySensor SensorID="3" >
#       <SerialNumber>7809</SerialNumber>
#       <CalibrationDate>24-Mar-19</CalibrationDate>
#       <UseG_J>1</UseG_J>
#       <!-- Cell const and series R are applicable only for wide range sensors. -->
#       <SeriesR>0.0000</SeriesR>
#       <CellConst>2000.0000</CellConst>
#       <ConductivityType>0</ConductivityType>
#       <Coefficients equation="0" >
#         <A>0.00000000e+000</A>
#         <B>0.00000000e+000</B>
#         <C>0.00000000e+000</C>
#         <D>0.00000000e+000</D>
#         <M>0.0</M>
#         <CPcor>-9.57000000e-008</CPcor>
#       </Coefficients>
#       <Coefficients equation="1" >
#         <G>-1.00589325e+000</G>
#         <H>1.26816302e-001</H>
#         <I>-1.51560448e-004</I>
#         <J>2.67137274e-005</J>
#         <CPcor>-9.57000000e-008</CPcor>
#         <CTcor>3.2500e-006</CTcor>
#         <!-- WBOTC not applicable unless ConductivityType = 1. -->
#         <WBOTC>0.00000000e+000</WBOTC>
#       </Coefficients>
#       <Slope>1.00000000</Slope>
#       <Offset>0.00000</Offset>
#     </ConductivitySensor>
#   </sensor>
#   <sensor Channel="3" >
#     <!-- Count, Pressure, Strain Gauge -->
#     <PressureSensor SensorID="46" >
#       <SerialNumber>7809</SerialNumber>
#       <CalibrationDate>11-Mar-19</CalibrationDate>
#       <PA0>4.56561833e-002</PA0>
#       <PA1>4.85095118e-004</PA1>
#       <PA2>-2.88327090e-012</PA2>
#       <PTEMPA0>-5.48784562e+001</PTEMPA0>
#       <PTEMPA1>5.53756816e+001</PTEMPA1>
#       <PTEMPA2>-5.86727098e-001</PTEMPA2>
#       <PTCA0>5.25246745e+005</PTCA0>
#       <PTCA1>1.22304214e+001</PTCA1>
#       <PTCA2>-3.56745036e-001</PTCA2>
#       <PTCB0>2.51668750e+001</PTCB0>
#       <PTCB1>3.75000000e-004</PTCB1>
#       <PTCB2>0.00000000e+000</PTCB2>
#       <Offset>0.000000</Offset>
#     </PressureSensor>
#   </sensor>
#   <sensor Channel="4" >
#     <!-- A/D voltage 0, Oxygen, SBE 43 -->
#     <OxygenSensor SensorID="38" >
#       <SerialNumber>0434</SerialNumber>
#       <CalibrationDate>13-Apr-19</CalibrationDate>
#       <Use2007Equation>1</Use2007Equation>
#       <CalibrationCoefficients equation="0" >
#         <!-- Coefficients for Owens-Millard equation. -->
#         <Boc>0.0000</Boc>
#         <Soc>0.0000e+000</Soc>
#         <offset>0.0000</offset>
#         <Pcor>0.00e+000</Pcor>
#         <Tcor>0.0000</Tcor>
#         <Tau>0.0</Tau>
#       </CalibrationCoefficients>
#       <CalibrationCoefficients equation="1" >
#         <!-- Coefficients for Sea-Bird equation - SBE calibration in 2007 and later. -->
#         <Soc>4.2007e-001</Soc>
#         <offset>-0.6109</offset>
#         <A>-4.3656e-003</A>
#         <B> 1.7017e-004</B>
#         <C>-2.5341e-006</C>
#         <D0> 2.5826e+000</D0>
#         <D1> 1.92634e-004</D1>
#         <D2>-4.64803e-002</D2>
#         <E> 3.6000e-002</E>
#         <Tau20> 1.1800</Tau20>
#         <H1>-3.3000e-002</H1>
#         <H2> 5.0000e+003</H2>
#         <H3> 1.4500e+003</H3>
#       </CalibrationCoefficients>
#     </OxygenSensor>
#   </sensor>
#   <sensor Channel="5" >
#     <!-- A/D voltage 1, PAR/Logarithmic, Satlantic -->
#     <PARLog_SatlanticSensor SensorID="76" >
#       <SerialNumber>1122</SerialNumber>
#       <CalibrationDate>08-May-2019</CalibrationDate>
#       <a0>9.7456e-001</a0>
#       <a1>8.1640e-001</a1>
#       <Im>1.3589e+000</Im>
#       <Multiplier>1.0000e+000</Multiplier>
#     </PARLog_SatlanticSensor>
#   </sensor>
#   <sensor Channel="6" >
#     <!-- A/D voltage 2, pH -->
#     <pH_Sensor SensorID="43" >
#       <SerialNumber>0363</SerialNumber>
#       <CalibrationDate>15-Apr-19</CalibrationDate>
#       <Slope>4.5952</Slope>
#       <Offset>2.5370</Offset>
#     </pH_Sensor>
#   </sensor>
#   <sensor Channel="7" >
#     <!-- A/D voltage 3, Oxidation Reduction Potential -->
#     <OxidationReductionPotentialSensor SensorID="41" >
#       <SerialNumber>0363</SerialNumber>
#       <CalibrationDate>15-Apr-19</CalibrationDate>
#       <B>2.499480</B>
#       <M>-0.496195</M>
#       <Offset>0.0</Offset>
#     </OxidationReductionPotentialSensor>
#   </sensor>
#   <sensor Channel="8" >
#     <!-- A/D voltage 4, Fluorometer, WET Labs ECO-AFL/FL -->
#     <FluoroWetlabECO_AFL_FL_Sensor SensorID="20" >
#       <SerialNumber>FLNTURT-2496</SerialNumber>
#       <CalibrationDate>08-May-2019</CalibrationDate>
#       <ScaleFactor>5.00000000e+001</ScaleFactor>
#       <!-- Dark output -->
#       <Vblank>0.0550</Vblank>
#     </FluoroWetlabECO_AFL_FL_Sensor>
#   </sensor>
#   <sensor Channel="9" >
#     <!-- A/D voltage 5, Turbidity Meter, WET Labs, ECO-NTU -->
#     <TurbidityMeter SensorID="67" >
#       <SerialNumber>FLNTURT-2496</SerialNumber>
#       <CalibrationDate>08-May-2019</CalibrationDate>
#       <ScaleFactor>189.000000</ScaleFactor>
#       <!-- Dark output -->
#       <DarkVoltage>0.071000</DarkVoltage>
#     </TurbidityMeter>
#   </sensor>
# </Sensors>
# datcnv_date = Oct 23 2019 16:06:16, 7.26.7.129 [datcnv_vars = 15]
# datcnv_in = C:\DATA\102319_fcr30.hex C:\DATA\SBE19plusV2_7809.xmlcon
# datcnv_skipover = 0
# datcnv_ox_hysteresis_correction = yes
# datcnv_ox_tau_correction = yes
# filter_date = Oct 23 2019 16:06:38, 7.26.7.129
# filter_in = C:\DATA\102319_fcr30.cnv
# filter_low_pass_tc_A = 0.030
# filter_low_pass_tc_B = 0.150
# filter_low_pass_A_vars = sbeox0ML/L prdM prdE tv290C density00
# filter_low_pass_B_vars = depFM dz/dtM sbeox0PS specc c0uS/cm flECO-AFL ph orp par/sat/log turbWETntu0
# alignctd_date = Oct 23 2019 16:06:56, 7.26.7.129
# alignctd_in = C:\DATA\102319_fcr30.cnv
# alignctd_adv = dz/dtM 1.000, sbeox0PS 1.000, specc 1.000, c0uS/cm 1.000, flECO-AFL 1.000, ph 1.000, orp 1.000, turbWETntu0 1.000                                                                                                   
# file_type = ascii
*END*
     -0.375      0.093     6.8977     96.205     40.885  32.394352     1.1095      7.699   306.8771 8.7973e+02    12.0254     -0.381     -0.551    14.2578   999.2245 0.0000e+00
     -0.338      0.124     6.8732     96.262     40.870  32.405450     1.1336      7.736   304.4876 9.1849e+02    12.3540     -0.334     -0.485    14.3991   999.2056 0.0000e+00
     -0.292      0.158     6.8553     96.350     40.820  32.381275     1.1414      7.756   303.0834 9.8269e+02    12.3339     -0.281     -0.409    14.5172   999.1891 0.0000e+00
     -0.250      0.188     6.8498     96.509     40.773  32.355905     1.2224      7.769   302.8048 1.0584e+03    11.8479     -0.244     -0.354    14.5729   999.1809 0.0000e+00
     -0.207      0.206     6.8417     96.795     40.759  32.352568     1.3839      7.775   302.6672 1.0659e+03    10.9343     -0.211     -0.307    14.6195   999.1744 0.0000e+00
     -0.146      0.211     6.8443     97.196     40.739  32.340934     1.4815      7.774   302.1945 1.0373e+03    10.3983     -0.150     -0.217    14.6434   999.1711 0.0000e+00
     -0.073      0.206     6.8464     97.698     40.741  32.342164     1.5094      7.766   301.5632 1.1096e+03    10.3484     -0.065     -0.094    14.6616   999.1688 0.0000e+00
     -0.012      0.190     6.8526     98.272     40.775  32.367434     1.5909      7.756   300.9712 1.0753e+03    10.3971     -0.007     -0.010    14.6752   999.1671 0.0000e+00
      0.035      0.161     6.8735     98.851     40.810  32.392619     1.7209      7.748   300.3706 8.1296e+02    10.4296      0.036      0.051    14.6870   999.1656 0.0000e+00
      0.074      0.122     6.9004     99.296     40.820  32.392829     1.7899      7.741   299.7224 6.4671e+02    10.4138      0.079      0.115    14.6914   999.1651 0.0000e+00
      0.099      0.082     6.9376     99.424     40.803  32.369972     1.8009      7.734   298.9848 7.0081e+02    10.4025      0.102      0.149    14.6892   999.1656 0.0000e+00
      0.109      0.048     6.9800     99.170     40.809  32.370089     1.8022      7.727   298.1627 1.0368e+03    10.2273      0.109      0.158    14.6875   999.1658 0.0000e+00
      0.110      0.023     7.0241     98.470     40.838  32.394235     1.7977      7.719   297.3533 1.2992e+03     9.8687      0.109      0.158    14.6855   999.1661 0.0000e+00
      0.109      0.005     7.0647     97.101     40.850  32.408082     1.7976      7.711   296.6839 9.5977e+02     9.7042      0.107      0.155    14.6747   999.1677 0.0000e+00
      0.105     -0.004     7.0761     94.940     40.846  32.410588     1.7926      7.704   296.1783 5.1133e+02     9.7135      0.104      0.151    14.6611   999.1697 0.0000e+00
      0.101     -0.006     7.0576     92.125     40.856  32.424546     1.7465      7.698   295.7146 4.3844e+02     9.5880      0.098      0.143    14.6547   999.1706 0.0000e+00
      0.100     -0.005     7.0170     88.963     40.880  32.449939     1.6650      7.691   295.2070 4.7832e+02     9.3660      0.097      0.141    14.6567   999.1703 0.0000e+00
      0.100     -0.002     6.9223     85.798     40.891  32.463777     1.6125      7.683   294.7730 4.6031e+02     9.2575      0.098      0.142    14.6631   999.1694 0.0000e+00
      0.099      0.003     6.7632     82.935     40.889  32.464940     1.6068      7.676   294.4248 4.8306e+02     9.2598      0.097      0.141    14.6704   999.1683 0.0000e+00
      0.099      0.007     6.5539     80.609     40.887  32.464005     1.6043      7.669   294.0944 4.8093e+02     9.1647      0.096      0.139    14.6779   999.1672 0.0000e+00
      0.101      0.010     6.3190     78.894     40.873  32.452468     1.5819      7.663   293.7037 3.8696e+02     8.9269      0.098      0.142    14.6861   999.1660 0.0000e+00
      0.106      0.011     6.0863     77.707     40.872  32.452372     1.5614      7.658   293.3144 3.4116e+02     8.7771      0.103      0.150    14.6932   999.1650 0.0000e+00
      0.111      0.010     5.8753     76.942     40.883  32.462852     1.5559      7.653   293.0008 3.8026e+02     8.7618      0.110      0.159    14.6965   999.1646 0.0000e+00
      0.116      0.005     5.7087     76.496     40.867  32.452249     1.5584      7.649   292.6655 4.0595e+02     8.7098      0.115      0.166    14.6962   999.1646 0.0000e+00
      0.117     -0.001     5.5900     76.228     40.863  32.451096     1.5573      7.645   292.3574 4.9959e+02     8.6081      0.116      0.168    14.6952   999.1648 0.0000e+00
      0.116     -0.009     5.5087     76.023     40.858  32.448911     1.5511      7.639   292.0287 5.9652e+02     8.5471      0.115      0.167    14.6959   999.1647 0.0000e+00
      0.112     -0.015     5.4554     75.803     40.828  32.425834     1.5530      7.634   291.6172 4.9267e+02     8.5627      0.111      0.161    14.6984   999.1643 0.0000e+00
      0.105     -0.017     5.4281     75.488     40.827  32.425929     1.5550      7.630   291.3400 3.9598e+02     8.5677      0.103      0.150    14.7011   999.1638 0.0000e+00
      0.096     -0.015     5.4116     75.088     40.857  32.450053     1.5229      7.626   291.2583 4.2126e+02     8.3775      0.094      0.136    14.7032   999.1635 0.0000e+00
      0.090     -0.011     5.3979     74.715     40.875  32.463673     1.4680      7.621   291.1444 4.2087e+02     8.0657      0.087      0.126    14.7055   999.1631 0.0000e+00
      0.088     -0.006     5.3852     74.443     40.875  32.463682     1.4465      7.615   290.9095 3.8161e+02     7.8782      0.085      0.124    14.7073   999.1628 0.0000e+00
      0.090     -0.001     5.3628     74.320     40.858  32.450167     1.4539      7.609   290.6564 3.8140e+02     7.8475      0.088      0.128    14.7082   999.1627 0.0000e+00
      0.094      0.003     5.3296     74.397     40.829  32.427186     1.4793      7.602   290.4071 3.9846e+02     8.1533      0.092      0.135    14.7081   999.1628 0.0000e+00
      0.096      0.004     5.3021     74.695     40.845  32.439671     1.5281      7.594   290.2181 3.5601e+02     8.7243      0.094      0.137    14.7078   999.1628 0.0000e+00
      0.097      0.003     5.2823     75.206     40.888  32.474191     1.5591      7.588   290.0913 3.3788e+02     9.0156      0.095      0.138    14.7075   999.1629 0.0000e+00
      0.097      0.002     5.2711     75.844     40.874  32.463797     1.5590      7.583   289.8209 4.2073e+02     9.0209      0.095      0.138    14.7070   999.1629 0.0000e+00
      0.097     -0.001     5.2775     76.505     40.844  32.440918     1.5430      7.579   289.4437 4.4257e+02     8.9198      0.094      0.137    14.7066   999.1630 0.0000e+00
      0.097     -0.004     5.2970     77.094     40.855  32.451414     1.5223      7.576   289.1441 4.2429e+02     8.7112      0.095      0.138    14.7068   999.1630 0.0000e+00
      0.096     -0.005     5.3369     77.523     40.870  32.463783     1.5082      7.575   288.7806 4.4365e+02     8.5634      0.095      0.136    14.7079   999.1628 0.0000e+00
      0.095     -0.005     5.3842     77.761     40.868  32.463545     1.4932      7.572   288.2307 3.8590e+02     8.5419      0.093      0.134    14.7090   999.1626 0.0000e+00
      0.092     -0.001     5.4330     77.820     40.847  32.448544     1.4981      7.568   287.1414 3.3639e+02     8.6141      0.091      0.132    14.7103   999.1624 0.0000e+00
      0.087      0.008     5.4781     77.733     40.797  32.409334     1.5326      7.563   286.2798 3.4331e+02     8.7156      0.085      0.123    14.7112   999.1623 0.0000e+00
      0.086      0.019     5.5082     77.554     40.749  32.370219     1.5549      7.555   286.7610 3.3091e+02     8.7543      0.082      0.118    14.7122   999.1621 0.0000e+00
      0.091      0.029     5.5250     77.359     40.735  32.356374     1.5595      7.547   287.2814 3.0079e+02     8.7539      0.086      0.125    14.7144   999.1618 0.0000e+00
      0.105      0.035     5.5277     77.189     40.751  32.368857     1.6059      7.540   287.1511 3.7473e+02     8.8086      0.099      0.145    14.7159   999.1616 0.0000e+00
      0.124      0.037     5.5208     77.089     40.781  32.394220     1.6913      7.534   286.9062 4.5671e+02     8.9245      0.123      0.179    14.7176   999.1615 0.0000e+00
      0.139      0.034     5.5048     77.059     40.798  32.409200     1.7415      7.529   286.7289 3.6981e+02     9.0080      0.141      0.203    14.7164   999.1618 0.0000e+00
      0.146      0.025     5.4920     77.058     40.814  32.423056     1.7535      7.525   286.7281 3.0063e+02     9.0324      0.144      0.209    14.7113   999.1626 0.0000e+00
      0.147      0.011     5.4780     77.079     40.828  32.434832     1.7502      7.523   286.6386 3.2036e+02     9.0229      0.144      0.209    14.7115   999.1624 0.0000e+00
      0.147     -0.002     5.4700     77.069     40.814  32.424667     1.7009      7.521   286.4216 3.3295e+02     8.9250      0.145      0.210    14.7143   999.1621 0.0000e+00
      0.145     -0.010     5.4709     76.929     40.817  32.427071     1.6089      7.518   286.1692 3.2331e+02     8.7340      0.144      0.209    14.7155   999.1620 0.0000e+00
      0.140     -0.012     5.4683     76.597     40.864  32.463898     1.5563      7.514   285.8233 2.9842e+02     8.6149      0.139      0.200    14.7169   999.1617 0.0000e+00
      0.132     -0.010     5.4722     76.099     40.896  32.489169     1.5586      7.511   285.5088 3.1404e+02     8.5981      0.129      0.186    14.7180   999.1615 0.0000e+00
      0.126     -0.007     5.4737     75.504     40.884  32.478776     1.5764      7.506   285.3790 3.5528e+02     8.6288      0.122      0.177    14.7190   999.1613 0.0000e+00
      0.125     -0.002     5.4661     74.862     40.868  32.465157     1.6071      7.500   285.2861 4.0997e+02     8.7245      0.121      0.176    14.7194   999.1612 0.0000e+00
      0.129      0.002     5.4416     74.256     40.851  32.451425     1.6263      7.493   285.2454 4.5347e+02     8.7723      0.126      0.183    14.7190   999.1613 0.0000e+00
      0.134      0.005     5.4035     73.772     40.836  32.439669     1.6181      7.488   285.2319 3.8294e+02     8.7479      0.132      0.192    14.7183   999.1615 0.0000e+00
      0.137      0.005     5.3617     73.468     40.848  32.449940     1.6203      7.484   285.0365 3.0474e+02     8.8223      0.135      0.196    14.7169   999.1617 0.0000e+00
      0.137      0.003     5.3132     73.349     40.846  32.448680     1.6527      7.479   284.8616 3.0983e+02     9.0166      0.135      0.196    14.7154   999.1619 0.0000e+00
      0.136      0.000     5.2685     73.377     40.815  32.424439     1.6805      7.475   284.7514 3.2080e+02     9.1640      0.134      0.193    14.7149   999.1620 0.0000e+00
      0.134     -0.002     5.2321     73.476     40.799  32.410697     1.6882      7.472   284.5645 3.1670e+02     9.1955      0.132      0.191    14.7155   999.1619 0.0000e+00
      0.134     -0.002     5.2103     73.536     40.798  32.409448     1.6842      7.470   284.4098 3.3447e+02     8.9715      0.131      0.191    14.7166   999.1617 0.0000e+00
      0.134     -0.001     5.2034     73.498     40.799  32.409335     1.6846      7.468   284.3429 3.4604e+02     8.5520      0.131      0.190    14.7172   999.1616 0.0000e+00
      0.134      0.001     5.2062     73.333     40.800  32.409325     1.6927      7.465   284.2714 3.4015e+02     8.3520      0.131      0.190    14.7174   999.1615 0.0000e+00
