* Sea-Bird SBE19plus  Data File:
* FileName = C:\DATA\103019_fcr_0005.hex
* Software version 2.8.0.119 SB_Terminal.dll
* Temperature SN = 7809
* Conductivity SN = 7809
* System UpLoad Time = Oct 30 2019 15:29:09
* <ApplicationData>
* <Seaterm232>
* <SoftwareVersion>2.8.0.119</SoftwareVersion>
* <BuildDate>07-Nov-2018</BuildDate>
* </Seaterm232>
* </ApplicationData>
* cast   5 30 Oct 2019 10:50:00 samples 2846 to 3456, avg = 1, stop = mag switch
# nquan = 16
# nvalues = 496                         
# units = specified
# name 0 = depFM: Depth [fresh water, m]
# name 1 = dz/dtM: Descent Rate [m/s]
# name 2 = sbeox0ML/L: Oxygen, SBE 43 [ml/l]
# name 3 = sbeox0PS: Oxygen, SBE 43 [% saturation]
# name 4 = specc: Specific Conductance [uS/cm]
# name 5 = c0uS/cm: Conductivity [uS/cm]
# name 6 = flECO-AFL: Fluorescence, WET Labs ECO-AFL/FL [mg/m^3]
# name 7 = ph: pH
# name 8 = orp: Oxidation Reduction Potential [mV]
# name 9 = par/sat/log: PAR/Logarithmic, Satlantic
# name 10 = turbWETntu0: Turbidity, WET Labs ECO [NTU]
# name 11 = prdM: Pressure, Strain Gauge [db]
# name 12 = prdE: Pressure, Strain Gauge [psi]
# name 13 = tv290C: Temperature [ITS-90, deg C]
# name 14 = density00: Density [density, kg/m^3]
# name 15 = flag:  0.000e+00
# span 0 =     -0.517,      6.654       
# span 1 =     -0.005,      0.282       
# span 2 =     4.1790,     7.8147       
# span 3 =     57.746,    111.075       
# span 4 =      2.611,     48.836       
# span 5 =   2.074889,  37.835755       
# span 6 =    -0.1352,     6.1083       
# span 7 =      6.691,      7.553       
# span 8 =   271.3459,   314.7367       
# span 9 = 1.2358e-01, 1.0160e+02       
# span 10 =    -0.5036,    19.2326      
# span 11 =     -0.507,      6.526      
# span 12 =     -0.735,      9.464      
# span 13 =    13.7287,    15.4025      
# span 14 =   999.0577,   999.3340      
# span 15 = 0.0000e+00, 0.0000e+00      
# interval = seconds: 0.25
# start_time = Oct 30 2019 10:50:00 [Instrument's time stamp, header]
# bad_flag = -9.990e-29
# <Sensors count="9" >
#   <sensor Channel="1" >
#     <!-- Count, Temperature -->
#     <TemperatureSensor SensorID="58" >
#       <SerialNumber>7809</SerialNumber>
#       <CalibrationDate>24-Mar-19</CalibrationDate>
#       <A0>1.21792325e-003</A0>
#       <A1>2.81669265e-004</A1>
#       <A2>-1.60333336e-006</A2>
#       <A3>1.98414625e-007</A3>
#       <Slope>1.00000000</Slope>
#       <Offset>0.0000</Offset>
#     </TemperatureSensor>
#   </sensor>
#   <sensor Channel="2" >
#     <!-- Frequency 0, Conductivity -->
#     <ConductivitySensor SensorID="3" >
#       <SerialNumber>7809</SerialNumber>
#       <CalibrationDate>24-Mar-19</CalibrationDate>
#       <UseG_J>1</UseG_J>
#       <!-- Cell const and series R are applicable only for wide range sensors. -->
#       <SeriesR>0.0000</SeriesR>
#       <CellConst>2000.0000</CellConst>
#       <ConductivityType>0</ConductivityType>
#       <Coefficients equation="0" >
#         <A>0.00000000e+000</A>
#         <B>0.00000000e+000</B>
#         <C>0.00000000e+000</C>
#         <D>0.00000000e+000</D>
#         <M>0.0</M>
#         <CPcor>-9.57000000e-008</CPcor>
#       </Coefficients>
#       <Coefficients equation="1" >
#         <G>-1.00589325e+000</G>
#         <H>1.26816302e-001</H>
#         <I>-1.51560448e-004</I>
#         <J>2.67137274e-005</J>
#         <CPcor>-9.57000000e-008</CPcor>
#         <CTcor>3.2500e-006</CTcor>
#         <!-- WBOTC not applicable unless ConductivityType = 1. -->
#         <WBOTC>0.00000000e+000</WBOTC>
#       </Coefficients>
#       <Slope>1.00000000</Slope>
#       <Offset>0.00000</Offset>
#     </ConductivitySensor>
#   </sensor>
#   <sensor Channel="3" >
#     <!-- Count, Pressure, Strain Gauge -->
#     <PressureSensor SensorID="46" >
#       <SerialNumber>7809</SerialNumber>
#       <CalibrationDate>11-Mar-19</CalibrationDate>
#       <PA0>4.56561833e-002</PA0>
#       <PA1>4.85095118e-004</PA1>
#       <PA2>-2.88327090e-012</PA2>
#       <PTEMPA0>-5.48784562e+001</PTEMPA0>
#       <PTEMPA1>5.53756816e+001</PTEMPA1>
#       <PTEMPA2>-5.86727098e-001</PTEMPA2>
#       <PTCA0>5.25246745e+005</PTCA0>
#       <PTCA1>1.22304214e+001</PTCA1>
#       <PTCA2>-3.56745036e-001</PTCA2>
#       <PTCB0>2.51668750e+001</PTCB0>
#       <PTCB1>3.75000000e-004</PTCB1>
#       <PTCB2>0.00000000e+000</PTCB2>
#       <Offset>0.000000</Offset>
#     </PressureSensor>
#   </sensor>
#   <sensor Channel="4" >
#     <!-- A/D voltage 0, Oxygen, SBE 43 -->
#     <OxygenSensor SensorID="38" >
#       <SerialNumber>0434</SerialNumber>
#       <CalibrationDate>13-Apr-19</CalibrationDate>
#       <Use2007Equation>1</Use2007Equation>
#       <CalibrationCoefficients equation="0" >
#         <!-- Coefficients for Owens-Millard equation. -->
#         <Boc>0.0000</Boc>
#         <Soc>0.0000e+000</Soc>
#         <offset>0.0000</offset>
#         <Pcor>0.00e+000</Pcor>
#         <Tcor>0.0000</Tcor>
#         <Tau>0.0</Tau>
#       </CalibrationCoefficients>
#       <CalibrationCoefficients equation="1" >
#         <!-- Coefficients for Sea-Bird equation - SBE calibration in 2007 and later. -->
#         <Soc>4.2007e-001</Soc>
#         <offset>-0.6109</offset>
#         <A>-4.3656e-003</A>
#         <B> 1.7017e-004</B>
#         <C>-2.5341e-006</C>
#         <D0> 2.5826e+000</D0>
#         <D1> 1.92634e-004</D1>
#         <D2>-4.64803e-002</D2>
#         <E> 3.6000e-002</E>
#         <Tau20> 1.1800</Tau20>
#         <H1>-3.3000e-002</H1>
#         <H2> 5.0000e+003</H2>
#         <H3> 1.4500e+003</H3>
#       </CalibrationCoefficients>
#     </OxygenSensor>
#   </sensor>
#   <sensor Channel="5" >
#     <!-- A/D voltage 1, PAR/Logarithmic, Satlantic -->
#     <PARLog_SatlanticSensor SensorID="76" >
#       <SerialNumber>1122</SerialNumber>
#       <CalibrationDate>08-May-2019</CalibrationDate>
#       <a0>9.7456e-001</a0>
#       <a1>8.1640e-001</a1>
#       <Im>1.3589e+000</Im>
#       <Multiplier>1.0000e+000</Multiplier>
#     </PARLog_SatlanticSensor>
#   </sensor>
#   <sensor Channel="6" >
#     <!-- A/D voltage 2, pH -->
#     <pH_Sensor SensorID="43" >
#       <SerialNumber>0363</SerialNumber>
#       <CalibrationDate>15-Apr-19</CalibrationDate>
#       <Slope>4.5952</Slope>
#       <Offset>2.5370</Offset>
#     </pH_Sensor>
#   </sensor>
#   <sensor Channel="7" >
#     <!-- A/D voltage 3, Oxidation Reduction Potential -->
#     <OxidationReductionPotentialSensor SensorID="41" >
#       <SerialNumber>0363</SerialNumber>
#       <CalibrationDate>15-Apr-19</CalibrationDate>
#       <B>2.499480</B>
#       <M>-0.496195</M>
#       <Offset>0.0</Offset>
#     </OxidationReductionPotentialSensor>
#   </sensor>
#   <sensor Channel="8" >
#     <!-- A/D voltage 4, Fluorometer, WET Labs ECO-AFL/FL -->
#     <FluoroWetlabECO_AFL_FL_Sensor SensorID="20" >
#       <SerialNumber>FLNTURT-2496</SerialNumber>
#       <CalibrationDate>08-May-2019</CalibrationDate>
#       <ScaleFactor>5.00000000e+001</ScaleFactor>
#       <!-- Dark output -->
#       <Vblank>0.0550</Vblank>
#     </FluoroWetlabECO_AFL_FL_Sensor>
#   </sensor>
#   <sensor Channel="9" >
#     <!-- A/D voltage 5, Turbidity Meter, WET Labs, ECO-NTU -->
#     <TurbidityMeter SensorID="67" >
#       <SerialNumber>FLNTURT-2496</SerialNumber>
#       <CalibrationDate>08-May-2019</CalibrationDate>
#       <ScaleFactor>189.000000</ScaleFactor>
#       <!-- Dark output -->
#       <DarkVoltage>0.071000</DarkVoltage>
#     </TurbidityMeter>
#   </sensor>
# </Sensors>
# datcnv_date = Oct 30 2019 15:31:59, 7.26.7.129 [datcnv_vars = 15]
# datcnv_in = C:\DATA\103019_fcr45.hex C:\DATA\SBE19plusV2_7809.xmlcon
# datcnv_skipover = 0
# datcnv_ox_hysteresis_correction = yes
# datcnv_ox_tau_correction = yes
# filter_date = Oct 30 2019 15:32:26, 7.26.7.129
# filter_in = C:\DATA\103019_fcr45.cnv
# filter_low_pass_tc_A = 0.030
# filter_low_pass_tc_B = 0.150
# filter_low_pass_A_vars = sbeox0ML/L prdM prdE tv290C density00
# filter_low_pass_B_vars = depFM dz/dtM sbeox0PS specc c0uS/cm flECO-AFL ph orp par/sat/log turbWETntu0
# alignctd_date = Oct 30 2019 15:32:46, 7.26.7.129
# alignctd_in = C:\DATA\103019_fcr45.cnv
# alignctd_adv = dz/dtM 1.000, sbeox0PS 1.000, specc 1.000, c0uS/cm 1.000, flECO-AFL 1.000, ph 1.000, orp 1.000, turbWETntu0 1.000                                                                                                   
# file_type = ascii
*END*
     -0.517      0.001     6.7324     95.046      2.611   2.074889    -0.1204      6.803   283.3373 2.6054e+01    -0.4572     -0.507     -0.735    14.7451   999.1430 0.0000e+00
     -0.517      0.001     6.7338     94.999      2.696   2.143079    -0.1282      6.801   287.7431 2.4802e+01    -0.4720     -0.507     -0.735    14.7446   999.1431 0.0000e+00
     -0.516      0.000     6.7351     94.890      2.944   2.340524    -0.1352      6.805   287.0913 2.5405e+01    -0.5036     -0.506     -0.734    14.7443   999.1430 0.0000e+00
     -0.516 8.1075e-08     6.7429     94.765      3.222   2.561204    -0.1097      6.809   286.0393 2.6793e+01    -0.4140     -0.506     -0.734    14.7442   999.1430 0.0000e+00
     -0.516 8.9182e-07     6.7453     94.565      3.343   2.656836    -0.0533      6.810   283.9720 2.9219e+01    -0.2085     -0.505     -0.733    14.7443   999.1430 0.0000e+00
     -0.516      0.000     6.7433     94.277      3.204   2.546296    -0.0173      6.812   280.7656 3.4834e+01    -0.0838     -0.506     -0.734    14.7440   999.1431 0.0000e+00
     -0.516      0.000     6.7307     93.973      2.976   2.365271    -0.0036      6.816   278.3308 4.4159e+01    -0.0526     -0.507     -0.735    14.7439   999.1432 0.0000e+00
     -0.516      0.001     6.7265     93.684      2.821   2.242351     0.0769      6.820   273.5486 5.4073e+01     0.1362     -0.506     -0.734    14.7437   999.1432 0.0000e+00
     -0.516      0.005     6.7128     93.432      2.928   2.327397     0.2198      6.844   273.0190 6.1047e+01     0.4948     -0.507     -0.735    14.7440   999.1433 0.0000e+00
     -0.516      0.016     6.6884     93.234      6.098   4.850970     0.2928      6.928   288.1887 6.6580e+01     0.6782     -0.506     -0.734    14.7433   999.1433 0.0000e+00
     -0.516      0.035     6.6679     93.084     14.782  11.775558     0.3105      7.069   307.6857 7.2391e+01     0.8131     -0.506     -0.734    14.7436   999.1431 0.0000e+00
     -0.512      0.064     6.6461     92.984     26.560  21.204158     0.4591      7.230   314.7367 7.6969e+01     2.3877     -0.506     -0.734    14.7422   999.1435 0.0000e+00
     -0.499      0.105     6.6277     92.939     36.155  28.933145     0.7282      7.365   312.9576 8.0334e+01     5.2637     -0.496     -0.719    14.7439   999.1430 0.0000e+00
     -0.471      0.154     6.6143     92.930     40.003  32.087601     0.8771      7.445   310.0931 8.5310e+01     6.8467     -0.466     -0.676    14.7404   999.1441 0.0000e+00
     -0.427      0.201     6.6005     92.936     40.355  32.444611     0.9583      7.494   308.1518 9.2344e+01     7.2705     -0.426     -0.618    14.7649   999.1433 0.0000e+00
     -0.364      0.242     6.5766     92.956     40.335  32.488276     1.7705      7.528   307.1229 9.8519e+01    10.3550     -0.367     -0.533    14.8720   999.1318 0.0000e+00
     -0.281      0.271     6.5569     93.055     40.283  32.488704     3.2676      7.548   306.6005 1.0160e+02    15.9574     -0.277     -0.402    14.9981   999.1173 0.0000e+00
     -0.195      0.282     6.5409     93.258     40.203  32.449834     4.0961      7.553   306.2238 9.9748e+01    19.0010     -0.185     -0.268    15.1041   999.1023 0.0000e+00
     -0.119      0.274     6.5293     93.558     40.122  32.399097     4.1922      7.550   305.8382 8.7571e+01    19.2326     -0.116     -0.169    15.2022   999.0874 0.0000e+00
     -0.047      0.245     6.5166     93.977     40.093  32.382947     4.4130      7.543   305.3795 6.5666e+01    18.6923     -0.045     -0.067    15.2780   999.0763 0.0000e+00
      0.020      0.203     6.5159     94.512     40.088  32.381488     4.8144      7.534   304.7215 4.6462e+01    17.6791      0.027      0.038    15.3290   999.0686 0.0000e+00
      0.072      0.157     6.5277     95.112     40.088  32.381461     5.0317      7.524   303.9054 3.6493e+01    17.1409      0.079      0.114    15.3585   999.0643 0.0000e+00
      0.103      0.113     6.5442     95.682     40.091  32.382624     5.0464      7.514   303.0838 3.3287e+01    17.0685      0.107      0.155    15.3750   999.0618 0.0000e+00
      0.115      0.073     6.5730     96.177     40.107  32.395543     5.0354      7.507   302.2727 3.3314e+01    17.0007      0.116      0.168    15.3842   999.0605 0.0000e+00
      0.120      0.041     6.6106     96.589     40.124  32.410742     4.9417      7.501   301.4979 3.2111e+01    16.6815      0.118      0.171    15.3865   999.0600 0.0000e+00
      0.123      0.021     6.6565     96.901     40.157  32.439473     4.7628      7.495   300.6842 2.9836e+01    16.1260      0.121      0.176    15.3837   999.0606 0.0000e+00
      0.124      0.011     6.6976     97.117     40.215  32.489088     4.6591      7.490   299.7486 3.0131e+01    15.8229      0.122      0.178    15.3813   999.0609 0.0000e+00
      0.124      0.007     6.7317     97.297     40.228  32.502953     4.6506      7.486   298.8748 3.2151e+01    15.7688      0.122      0.177    15.3812   999.0609 0.0000e+00
      0.125      0.006     6.7610     97.455     40.197  32.480190     4.6771      7.482   298.1211 3.3002e+01    15.6690      0.122      0.177    15.3837   999.0605 0.0000e+00
      0.127      0.005     6.7829     97.524     40.180  32.467717     4.7361      7.478   297.3468 3.2737e+01    15.5666      0.124      0.181    15.3876   999.0600 0.0000e+00
      0.130      0.004     6.7950     97.486     40.194  32.479058     4.7746      7.475   296.7403 3.2395e+01    15.5466      0.129      0.187    15.3915   999.0594 0.0000e+00
      0.132      0.002     6.8059     97.366     40.208  32.490388     4.7692      7.473   296.2946 3.2224e+01    15.5256      0.131      0.190    15.3951   999.0589 0.0000e+00
      0.132     -0.001     6.8203     97.171     40.192  32.477789     4.7579      7.471   295.6578 3.2046e+01    15.3454      0.131      0.190    15.3975   999.0586 0.0000e+00
      0.130     -0.003     6.8246     96.889     40.161  32.453653     4.7589      7.466   294.9767 3.1969e+01    15.0384      0.128      0.186    15.3987   999.0583 0.0000e+00
      0.128     -0.005     6.8209     96.467     40.159  32.452404     4.7649      7.462   294.5128 3.2329e+01    14.8620      0.125      0.181    15.3991   999.0582 0.0000e+00
      0.126     -0.005     6.8127     95.863     40.171  32.462685     4.7691      7.460   294.0929 3.2802e+01    14.8513      0.124      0.180    15.3993   999.0582 0.0000e+00
      0.125     -0.004     6.7985     95.098     40.158  32.451041     4.7407      7.458   293.5996 3.2991e+01    15.0725      0.123      0.178    15.3997   999.0581 0.0000e+00
      0.125     -0.002     6.7807     94.213     40.143  32.438539     4.6735      7.456   293.1084 3.3002e+01    15.5053      0.122      0.177    15.4004   999.0580 0.0000e+00
      0.125     -0.001     6.7527     93.272     40.143  32.438444     4.6325      7.454   292.6270 3.2977e+01    15.7255      0.122      0.177    15.4015   999.0578 0.0000e+00
      0.125     -0.001     6.7089     92.402     40.157  32.449888     4.6353      7.451   292.2534 3.2881e+01    15.7355      0.122      0.178    15.4025   999.0577 0.0000e+00
      0.126     -0.001     6.6546     91.729     40.157  32.449992     4.6207      7.449   291.9469 3.2761e+01    15.9216      0.123      0.179    15.4019   999.0577 0.0000e+00
      0.126     -0.001     6.5921     91.311     40.144  32.439700     4.5771      7.448   291.5021 3.2908e+01    16.2707      0.123      0.179    15.3998   999.0581 0.0000e+00
      0.125     -0.002     6.5227     91.148     40.159  32.452375     4.5494      7.447   291.0912 3.3225e+01    16.4500      0.123      0.178    15.3985   999.0583 0.0000e+00
      0.123     -0.003     6.4581     91.177     40.188  32.476310     4.5461      7.445   290.8507 3.3515e+01    16.4515      0.121      0.176    15.3987   999.0582 0.0000e+00
      0.122     -0.003     6.4101     91.283     40.187  32.475251     4.5466      7.442   290.5727 3.3878e+01    16.4526      0.120      0.174    15.3995   999.0581 0.0000e+00
      0.122     -0.003     6.3805     91.398     40.143  32.439577     4.5557      7.440   290.1393 3.4061e+01    16.3318      0.119      0.173    15.4003   999.0580 0.0000e+00
      0.121     -0.003     6.3702     91.505     40.126  32.425742     4.5781      7.439   289.6547 3.4056e+01    16.0401      0.119      0.172    15.4011   999.0579 0.0000e+00
      0.121     -0.002     6.3762     91.623     40.138  32.434897     4.5918      7.438   289.2732 3.4176e+01    15.8423      0.118      0.172    15.4016   999.0578 0.0000e+00
      0.120     -0.002     6.3849     91.796     40.124  32.423348     4.6088      7.436   288.9686 3.4276e+01    15.8083      0.117      0.170    15.4015   999.0578 0.0000e+00
      0.119     -0.002     6.3935     92.114     40.111  32.413030     4.8004      7.435   288.6382 3.4300e+01    15.6950      0.116      0.169    15.4009   999.0578 0.0000e+00
      0.119     -0.001     6.4002     92.641     40.141  32.437069     5.1486      7.433   288.3769 3.4295e+01    15.4546      0.116      0.169    15.4004   999.0579 0.0000e+00
      0.119     -0.000     6.4080     93.343     40.170  32.460156     5.3328      7.433   288.2174 3.4201e+01    15.3266      0.116      0.169    15.4002   999.0580 0.0000e+00
      0.119 -2.029e-08     6.4176     94.165     40.143  32.438328     5.3542      7.433   288.0000 3.4116e+01    15.3281      0.116      0.168    15.4000   999.0580 0.0000e+00
      0.119 -2.232e-07     6.4369     95.020     40.128  32.426998     5.4859      7.432   287.7273 3.4082e+01    15.2110      0.116      0.169    15.4000   999.0580 0.0000e+00
      0.119 -2.198e-07     6.4764     95.797     40.157  32.450083     5.7292      7.431   287.5022 3.4096e+01    14.9911      0.117      0.170    15.4002   999.0580 0.0000e+00
      0.119 2.0630e-08     6.5258     96.429     40.174  32.463608     5.8593      7.430   287.3427 3.4174e+01    14.8657      0.117      0.170    15.4001   999.0580 0.0000e+00
      0.118 4.4860e-07     6.5856     96.893     40.174  32.463600     5.8622      7.429   287.1759 3.4244e+01    14.8418      0.116      0.168    15.4001   999.0580 0.0000e+00
      0.118      0.000     6.6488     97.147     40.157  32.449980     5.8169      7.428   286.9474 3.4195e+01    15.0946      0.115      0.167    15.4002   999.0579 0.0000e+00
      0.118      0.000     6.7047     97.192     40.128  32.425856     5.7450      7.427   286.6456 3.4063e+01    15.6291      0.116      0.168    15.4004   999.0579 0.0000e+00
      0.118      0.001     6.7487     97.105     40.128  32.425761     5.7120      7.426   286.2804 3.4038e+01    15.9624      0.116      0.168    15.4004   999.0580 0.0000e+00
      0.119      0.002     6.7827     96.922     40.157  32.448836     5.7045      7.425   285.9727 3.4101e+01    16.0105      0.117      0.169    15.4003   999.0580 0.0000e+00
      0.119      0.003     6.8014     96.685     40.160  32.451011     5.6804      7.425   285.7642 3.4061e+01    15.9488      0.117      0.169    15.4006   999.0579 0.0000e+00
      0.120      0.003     6.8004     96.440     40.161  32.452050     5.5851      7.424   285.5669 3.3971e+01    15.8387      0.117      0.170    15.4002   999.0580 0.0000e+00
      0.121      0.003     6.7953     96.187     40.174  32.461405     5.4369      7.423   285.3077 3.3872e+01    15.8272      0.118      0.172    15.3992   999.0581 0.0000e+00
