* Sea-Bird SBE19plus  Data File:
* FileName = C:\DATA\103019_fcr_0004.hex
* Software version 2.8.0.119 SB_Terminal.dll
* Temperature SN = 7809
* Conductivity SN = 7809
* System UpLoad Time = Oct 30 2019 15:28:51
* <ApplicationData>
* <Seaterm232>
* <SoftwareVersion>2.8.0.119</SoftwareVersion>
* <BuildDate>07-Nov-2018</BuildDate>
* </Seaterm232>
* </ApplicationData>
* cast   4 30 Oct 2019 10:44:20 samples 2160 to 2845, avg = 1, stop = mag switch
# nquan = 16
# nvalues = 583                         
# units = specified
# name 0 = depFM: Depth [fresh water, m]
# name 1 = dz/dtM: Descent Rate [m/s]
# name 2 = sbeox0ML/L: Oxygen, SBE 43 [ml/l]
# name 3 = sbeox0PS: Oxygen, SBE 43 [% saturation]
# name 4 = specc: Specific Conductance [uS/cm]
# name 5 = c0uS/cm: Conductivity [uS/cm]
# name 6 = flECO-AFL: Fluorescence, WET Labs ECO-AFL/FL [mg/m^3]
# name 7 = ph: pH
# name 8 = orp: Oxidation Reduction Potential [mV]
# name 9 = par/sat/log: PAR/Logarithmic, Satlantic
# name 10 = turbWETntu0: Turbidity, WET Labs ECO [NTU]
# name 11 = prdM: Pressure, Strain Gauge [db]
# name 12 = prdE: Pressure, Strain Gauge [psi]
# name 13 = tv290C: Temperature [ITS-90, deg C]
# name 14 = density00: Density [density, kg/m^3]
# name 15 = flag:  0.000e+00
# span 0 =     -0.518,      5.523       
# span 1 =     -0.013,      0.284       
# span 2 =     3.7670,     7.8354       
# span 3 =     51.965,    111.589       
# span 4 =      2.447,     49.315       
# span 5 =   1.958793,  38.218102       
# span 6 =    -0.1386,     5.9978       
# span 7 =      6.737,      7.746       
# span 8 =   254.5781,   312.1042       
# span 9 = 1.2354e-01, 1.1694e+02       
# span 10 =    -0.5551,    16.8514      
# span 11 =     -0.510,      5.417      
# span 12 =     -0.740,      7.857      
# span 13 =    13.7363,    15.4439      
# span 14 =   999.0513,   999.3278      
# span 15 = 0.0000e+00, 0.0000e+00      
# interval = seconds: 0.25
# start_time = Oct 30 2019 10:44:20 [Instrument's time stamp, header]
# bad_flag = -9.990e-29
# <Sensors count="9" >
#   <sensor Channel="1" >
#     <!-- Count, Temperature -->
#     <TemperatureSensor SensorID="58" >
#       <SerialNumber>7809</SerialNumber>
#       <CalibrationDate>24-Mar-19</CalibrationDate>
#       <A0>1.21792325e-003</A0>
#       <A1>2.81669265e-004</A1>
#       <A2>-1.60333336e-006</A2>
#       <A3>1.98414625e-007</A3>
#       <Slope>1.00000000</Slope>
#       <Offset>0.0000</Offset>
#     </TemperatureSensor>
#   </sensor>
#   <sensor Channel="2" >
#     <!-- Frequency 0, Conductivity -->
#     <ConductivitySensor SensorID="3" >
#       <SerialNumber>7809</SerialNumber>
#       <CalibrationDate>24-Mar-19</CalibrationDate>
#       <UseG_J>1</UseG_J>
#       <!-- Cell const and series R are applicable only for wide range sensors. -->
#       <SeriesR>0.0000</SeriesR>
#       <CellConst>2000.0000</CellConst>
#       <ConductivityType>0</ConductivityType>
#       <Coefficients equation="0" >
#         <A>0.00000000e+000</A>
#         <B>0.00000000e+000</B>
#         <C>0.00000000e+000</C>
#         <D>0.00000000e+000</D>
#         <M>0.0</M>
#         <CPcor>-9.57000000e-008</CPcor>
#       </Coefficients>
#       <Coefficients equation="1" >
#         <G>-1.00589325e+000</G>
#         <H>1.26816302e-001</H>
#         <I>-1.51560448e-004</I>
#         <J>2.67137274e-005</J>
#         <CPcor>-9.57000000e-008</CPcor>
#         <CTcor>3.2500e-006</CTcor>
#         <!-- WBOTC not applicable unless ConductivityType = 1. -->
#         <WBOTC>0.00000000e+000</WBOTC>
#       </Coefficients>
#       <Slope>1.00000000</Slope>
#       <Offset>0.00000</Offset>
#     </ConductivitySensor>
#   </sensor>
#   <sensor Channel="3" >
#     <!-- Count, Pressure, Strain Gauge -->
#     <PressureSensor SensorID="46" >
#       <SerialNumber>7809</SerialNumber>
#       <CalibrationDate>11-Mar-19</CalibrationDate>
#       <PA0>4.56561833e-002</PA0>
#       <PA1>4.85095118e-004</PA1>
#       <PA2>-2.88327090e-012</PA2>
#       <PTEMPA0>-5.48784562e+001</PTEMPA0>
#       <PTEMPA1>5.53756816e+001</PTEMPA1>
#       <PTEMPA2>-5.86727098e-001</PTEMPA2>
#       <PTCA0>5.25246745e+005</PTCA0>
#       <PTCA1>1.22304214e+001</PTCA1>
#       <PTCA2>-3.56745036e-001</PTCA2>
#       <PTCB0>2.51668750e+001</PTCB0>
#       <PTCB1>3.75000000e-004</PTCB1>
#       <PTCB2>0.00000000e+000</PTCB2>
#       <Offset>0.000000</Offset>
#     </PressureSensor>
#   </sensor>
#   <sensor Channel="4" >
#     <!-- A/D voltage 0, Oxygen, SBE 43 -->
#     <OxygenSensor SensorID="38" >
#       <SerialNumber>0434</SerialNumber>
#       <CalibrationDate>13-Apr-19</CalibrationDate>
#       <Use2007Equation>1</Use2007Equation>
#       <CalibrationCoefficients equation="0" >
#         <!-- Coefficients for Owens-Millard equation. -->
#         <Boc>0.0000</Boc>
#         <Soc>0.0000e+000</Soc>
#         <offset>0.0000</offset>
#         <Pcor>0.00e+000</Pcor>
#         <Tcor>0.0000</Tcor>
#         <Tau>0.0</Tau>
#       </CalibrationCoefficients>
#       <CalibrationCoefficients equation="1" >
#         <!-- Coefficients for Sea-Bird equation - SBE calibration in 2007 and later. -->
#         <Soc>4.2007e-001</Soc>
#         <offset>-0.6109</offset>
#         <A>-4.3656e-003</A>
#         <B> 1.7017e-004</B>
#         <C>-2.5341e-006</C>
#         <D0> 2.5826e+000</D0>
#         <D1> 1.92634e-004</D1>
#         <D2>-4.64803e-002</D2>
#         <E> 3.6000e-002</E>
#         <Tau20> 1.1800</Tau20>
#         <H1>-3.3000e-002</H1>
#         <H2> 5.0000e+003</H2>
#         <H3> 1.4500e+003</H3>
#       </CalibrationCoefficients>
#     </OxygenSensor>
#   </sensor>
#   <sensor Channel="5" >
#     <!-- A/D voltage 1, PAR/Logarithmic, Satlantic -->
#     <PARLog_SatlanticSensor SensorID="76" >
#       <SerialNumber>1122</SerialNumber>
#       <CalibrationDate>08-May-2019</CalibrationDate>
#       <a0>9.7456e-001</a0>
#       <a1>8.1640e-001</a1>
#       <Im>1.3589e+000</Im>
#       <Multiplier>1.0000e+000</Multiplier>
#     </PARLog_SatlanticSensor>
#   </sensor>
#   <sensor Channel="6" >
#     <!-- A/D voltage 2, pH -->
#     <pH_Sensor SensorID="43" >
#       <SerialNumber>0363</SerialNumber>
#       <CalibrationDate>15-Apr-19</CalibrationDate>
#       <Slope>4.5952</Slope>
#       <Offset>2.5370</Offset>
#     </pH_Sensor>
#   </sensor>
#   <sensor Channel="7" >
#     <!-- A/D voltage 3, Oxidation Reduction Potential -->
#     <OxidationReductionPotentialSensor SensorID="41" >
#       <SerialNumber>0363</SerialNumber>
#       <CalibrationDate>15-Apr-19</CalibrationDate>
#       <B>2.499480</B>
#       <M>-0.496195</M>
#       <Offset>0.0</Offset>
#     </OxidationReductionPotentialSensor>
#   </sensor>
#   <sensor Channel="8" >
#     <!-- A/D voltage 4, Fluorometer, WET Labs ECO-AFL/FL -->
#     <FluoroWetlabECO_AFL_FL_Sensor SensorID="20" >
#       <SerialNumber>FLNTURT-2496</SerialNumber>
#       <CalibrationDate>08-May-2019</CalibrationDate>
#       <ScaleFactor>5.00000000e+001</ScaleFactor>
#       <!-- Dark output -->
#       <Vblank>0.0550</Vblank>
#     </FluoroWetlabECO_AFL_FL_Sensor>
#   </sensor>
#   <sensor Channel="9" >
#     <!-- A/D voltage 5, Turbidity Meter, WET Labs, ECO-NTU -->
#     <TurbidityMeter SensorID="67" >
#       <SerialNumber>FLNTURT-2496</SerialNumber>
#       <CalibrationDate>08-May-2019</CalibrationDate>
#       <ScaleFactor>189.000000</ScaleFactor>
#       <!-- Dark output -->
#       <DarkVoltage>0.071000</DarkVoltage>
#     </TurbidityMeter>
#   </sensor>
# </Sensors>
# datcnv_date = Oct 30 2019 15:31:58, 7.26.7.129 [datcnv_vars = 15]
# datcnv_in = C:\DATA\103019_fcr30.hex C:\DATA\SBE19plusV2_7809.xmlcon
# datcnv_skipover = 0
# datcnv_ox_hysteresis_correction = yes
# datcnv_ox_tau_correction = yes
# filter_date = Oct 30 2019 15:32:26, 7.26.7.129
# filter_in = C:\DATA\103019_fcr30.cnv
# filter_low_pass_tc_A = 0.030
# filter_low_pass_tc_B = 0.150
# filter_low_pass_A_vars = sbeox0ML/L prdM prdE tv290C density00
# filter_low_pass_B_vars = depFM dz/dtM sbeox0PS specc c0uS/cm flECO-AFL ph orp par/sat/log turbWETntu0
# alignctd_date = Oct 30 2019 15:32:46, 7.26.7.129
# alignctd_in = C:\DATA\103019_fcr30.cnv
# alignctd_adv = dz/dtM 1.000, sbeox0PS 1.000, specc 1.000, c0uS/cm 1.000, flECO-AFL 1.000, ph 1.000, orp 1.000, turbWETntu0 1.000                                                                                                   
# file_type = ascii
*END*
     -0.518 1.6653e-10     6.6402     94.192      2.447   1.958793    -0.1355      6.924   254.5781 4.6236e+01    -0.2843     -0.508     -0.737    15.0196   999.1018 0.0000e+00
     -0.518 1.8319e-09     6.6413     94.230      2.890   2.313318    -0.1277      6.914   266.6770 4.7502e+01    -0.2799     -0.508     -0.737    15.0196   999.1018 0.0000e+00
     -0.518 2.0151e-08     6.6416     94.255      3.211   2.570486    -0.1322      6.911   274.9366 4.5152e+01    -0.3174     -0.509     -0.738    15.0193   999.1019 0.0000e+00
     -0.517 2.2166e-07     6.6401     94.270      3.323   2.660275    -0.1372      6.910   279.3313 4.1699e+01    -0.3764     -0.507     -0.735    15.0191   999.1019 0.0000e+00
     -0.517 5.7547e-07     6.6433     94.269      3.217   2.575170    -0.1277      6.910   282.2146 4.0591e+01    -0.4360     -0.506     -0.735    15.0189   999.1021 0.0000e+00
     -0.518      0.000     6.6469     94.254      2.955   2.365266    -0.1298      6.913   284.2441 4.0998e+01    -0.4809     -0.508     -0.737    15.0188   999.1022 0.0000e+00
     -0.518      0.000     6.6478     94.234      2.686   2.150070    -0.1364      6.918   287.4361 4.3748e+01    -0.5260     -0.508     -0.736    15.0186   999.1022 0.0000e+00
     -0.518      0.001     6.6496     94.239      2.816   2.254425    -0.1303      6.943   294.0514 4.9447e+01    -0.5551     -0.508     -0.736    15.0186   999.1023 0.0000e+00
     -0.518      0.006     6.6490     94.244      6.825   5.464607    -0.1333      7.051   303.8295 5.5247e+01    -0.5384     -0.508     -0.736    15.0182   999.1023 0.0000e+00
     -0.518      0.023     6.6486     94.223     18.692  14.976696    -0.1386      7.256   311.4495 6.1605e+01    -0.4877     -0.509     -0.738    15.0184   999.1022 0.0000e+00
     -0.518      0.054     6.6452     94.221     32.372  25.966089    -0.1157      7.459   312.1042 7.3018e+01    -0.2693     -0.507     -0.735    15.0176   999.1023 0.0000e+00
     -0.516      0.099     6.6464     94.229     39.024  31.350477     0.1174      7.589   308.5618 8.7798e+01     2.0038     -0.510     -0.740    15.0186   999.1021 0.0000e+00
     -0.498      0.153     6.6496     94.234     40.228  32.376397     0.5474      7.665   304.6686 1.0094e+02     6.1848     -0.503     -0.730    15.0166   999.1024 0.0000e+00
     -0.448      0.208     6.6429     94.257     40.355  32.532346     0.7991      7.711   302.0291 1.1080e+02     8.4992     -0.448     -0.650    15.0232   999.1059 0.0000e+00
     -0.373      0.254     6.6364     94.278     40.310  32.538031     0.9238      7.735   300.8245 1.1674e+02     8.8814     -0.368     -0.535    15.0793   999.1038 0.0000e+00
     -0.287      0.281     6.6255     94.330     40.240  32.508650     1.9343      7.744   300.0849 1.1694e+02    10.4776     -0.284     -0.412    15.1623   999.0929 0.0000e+00
     -0.196      0.284     6.6131     94.502     40.203  32.494439     3.7749      7.746   299.1948 1.0540e+02    13.3465     -0.191     -0.276    15.2385   999.0815 0.0000e+00
     -0.111      0.266     6.6064     94.797     40.190  32.493148     4.7812      7.742   298.0636 8.6613e+01    14.9260     -0.101     -0.146    15.3101   999.0710 0.0000e+00
     -0.044      0.235     6.6001     95.207     40.183  32.493039     4.8768      7.734   297.0771 7.3482e+01    15.0903     -0.035     -0.051    15.3639   999.0629 0.0000e+00
      0.004      0.198     6.5949     95.775     40.179  32.493133     4.9131      7.725   296.3880 6.1300e+01    15.0703      0.006      0.009    15.3947   999.0584 0.0000e+00
      0.041      0.158     6.6051     96.412     40.177  32.494286     4.9600      7.716   295.6684 4.6447e+01    14.9792      0.040      0.058    15.4119   999.0558 0.0000e+00
      0.076      0.121     6.6266     96.947     40.191  32.506988     4.9841      7.706   294.7424 3.8141e+01    14.9067      0.074      0.108    15.4218   999.0544 0.0000e+00
      0.107      0.090     6.6499     97.278     40.206  32.519783     4.9875      7.697   293.7964 3.4628e+01    14.8817      0.108      0.156    15.4280   999.0536 0.0000e+00
      0.129      0.065     6.6925     97.344     40.207  32.522071     4.9835      7.687   293.0063 3.0803e+01    14.9070      0.132      0.191    15.4325   999.0530 0.0000e+00
      0.137      0.044     6.7423     97.128     40.222  32.534649     4.9188      7.678   292.3308 2.9295e+01    14.8195      0.137      0.199    15.4355   999.0526 0.0000e+00
      0.137      0.027     6.7806     96.632     40.234  32.544948     4.7870      7.671   291.5651 3.0295e+01    14.5769      0.133      0.193    15.4373   999.0523 0.0000e+00
      0.138      0.014     6.8057     95.870     40.203  32.519670     4.7072      7.665   290.8036 3.0969e+01    14.4316      0.135      0.195    15.4384   999.0521 0.0000e+00
      0.142      0.007     6.8103     94.908     40.157  32.482853     4.6999      7.660   290.0926 3.0916e+01    14.4071      0.140      0.203    15.4394   999.0520 0.0000e+00
      0.144      0.005     6.7946     93.818     40.154  32.480564     4.6900      7.654   289.3366 3.1247e+01    14.4114      0.142      0.206    15.4398   999.0519 0.0000e+00
      0.144      0.005     6.7607     92.654     40.169  32.491997     4.6652      7.648   288.7176 3.1794e+01    14.4176      0.141      0.205    15.4400   999.0519 0.0000e+00
      0.144      0.004     6.7047     91.472     40.172  32.494172     4.6516      7.645   288.2001 3.2012e+01    14.4170      0.140      0.204    15.4405   999.0518 0.0000e+00
      0.146      0.003     6.6357     90.308     40.187  32.506855     4.6551      7.642   287.6401 3.1837e+01    14.4366      0.143      0.208    15.4411   999.0517 0.0000e+00
      0.148      0.001     6.5585     89.176     40.202  32.518422     4.7337      7.639   287.1094 3.1532e+01    14.5232      0.146      0.212    15.4415   999.0517 0.0000e+00
      0.149      0.000     6.4756     88.120     40.188  32.507102     4.8908      7.636   286.6010 3.1535e+01    14.6449      0.146      0.212    15.4408   999.0518 0.0000e+00
      0.148     -0.001     6.3920     87.213     40.176  32.496917     4.9862      7.633   286.0532 3.1715e+01    14.6631      0.145      0.211    15.4400   999.0519 0.0000e+00
      0.146     -0.001     6.3111     86.501     40.207  32.522195     4.9939      7.630   285.4761 3.1937e+01    14.6123      0.143      0.208    15.4398   999.0519 0.0000e+00
      0.145      0.000     6.2310     85.991     40.252  32.558900     4.9148      7.627   284.8720 3.2173e+01    14.4897      0.142      0.206    15.4398   999.0519 0.0000e+00
      0.144      0.001     6.1545     85.647     40.253  32.559940     4.7757      7.625   284.4274 3.2161e+01    14.2938      0.141      0.205    15.4398   999.0519 0.0000e+00
      0.144      0.004     6.0906     85.457     40.221  32.534774     4.7070      7.622   284.1449 3.1932e+01    14.2108      0.141      0.205    15.4399   999.0519 0.0000e+00
      0.146      0.007     6.0398     85.399     40.188  32.508474     4.6993      7.618   283.7790 3.1652e+01    14.2075      0.142      0.207    15.4401   999.0519 0.0000e+00
      0.149      0.010     6.0065     85.454     40.172  32.495792     4.6914      7.614   283.4454 3.1229e+01    14.1884      0.146      0.212    15.4403   999.0519 0.0000e+00
      0.152      0.012     5.9815     85.618     40.188  32.508351     4.6904      7.609   283.2086 3.0664e+01    14.2418      0.149      0.216    15.4406   999.0519 0.0000e+00
      0.156      0.013     5.9693     85.933     40.218  32.533401     4.6957      7.604   282.8945 3.0040e+01    14.3612      0.153      0.222    15.4410   999.0518 0.0000e+00
      0.160      0.013     5.9656     86.481     40.232  32.544825     4.6949      7.600   282.4870 2.9430e+01    14.4192      0.157      0.227    15.4416   999.0517 0.0000e+00
      0.163      0.012     5.9693     87.281     40.200  32.519555     4.6978      7.597   282.0668 2.9040e+01    14.3866      0.160      0.232    15.4420   999.0517 0.0000e+00
      0.166      0.009     5.9807     88.289     40.154  32.481717     4.7747      7.593   281.6863 2.8837e+01    14.1310      0.163      0.236    15.4422   999.0517 0.0000e+00
      0.169      0.004     5.9987     89.422     40.137  32.468091     4.9130      7.587   281.3282 2.8687e+01    13.7206      0.166      0.241    15.4426   999.0516 0.0000e+00
      0.171      0.000     6.0377     90.595     40.153  32.481717     4.9915      7.582   281.0067 2.8726e+01    13.5542      0.169      0.245    15.4429   999.0516 0.0000e+00
      0.171     -0.005     6.0940     91.764     40.200  32.519555     5.0040      7.578   280.7241 2.9117e+01    13.6263      0.169      0.243    15.4431   999.0516 0.0000e+00
      0.167     -0.009     6.1668     92.875     40.231  32.544824     4.9775      7.575   280.4065 2.9758e+01    13.8718      0.164      0.237    15.4433   999.0515 0.0000e+00
      0.162     -0.012     6.2486     93.840     40.216  32.533389     4.9150      7.573   280.1778 3.0312e+01    14.2278      0.158      0.229    15.4433   999.0515 0.0000e+00
      0.158     -0.013     6.3311     94.623     40.185  32.508224     4.8713      7.569   280.0233 3.0637e+01    14.3921      0.155      0.225    15.4433   999.0514 0.0000e+00
      0.156     -0.012     6.4135     95.248     40.168  32.494396     4.8653      7.564   279.7431 3.1023e+01    14.3833      0.152      0.221    15.4433   999.0515 0.0000e+00
      0.153     -0.010     6.4943     95.739     40.167  32.493130     4.8855      7.560   279.3717 3.1648e+01    14.3831      0.150      0.216    15.4435   999.0514 0.0000e+00
      0.149     -0.006     6.5629     96.137     40.167  32.492912     4.9170      7.558   279.0600 3.2209e+01    14.3893      0.146      0.211    15.4438   999.0513 0.0000e+00
      0.147     -0.002     6.6158     96.460     40.165  32.491758     4.9335      7.555   278.8137 3.2508e+01    14.3607      0.143      0.208    15.4439   999.0513 0.0000e+00
      0.146      0.003     6.6599     96.693     40.150  32.479181     4.9285      7.552   278.5451 3.2534e+01    14.3980      0.142      0.207    15.4438   999.0513 0.0000e+00
      0.148      0.008     6.6925     96.842     40.136  32.467757     4.9360      7.548   278.3073 3.2053e+01    14.6431      0.145      0.209    15.4437   999.0513 0.0000e+00
      0.152      0.014     6.7199     96.952     40.152  32.480553     4.9629      7.545   278.0897 3.1141e+01    14.9647      0.149      0.216    15.4437   999.0513 0.0000e+00
      0.156      0.019     6.7433     97.019     40.185  32.506977     4.9767      7.543   277.8936 3.0299e+01    15.1075      0.154      0.224    15.4437   999.0514 0.0000e+00
      0.161      0.021     6.7599     97.013     40.218  32.533401     4.9814      7.540   277.7424 2.9504e+01    15.0910      0.157      0.227    15.4435   999.0514 0.0000e+00
      0.167      0.021     6.7681     96.960     40.235  32.546197     5.0015      7.538   277.5523 2.8374e+01    14.9302      0.163      0.236    15.4433   999.0515 0.0000e+00
      0.175      0.016     6.7757     96.830     40.221  32.534773     5.0385      7.535   277.3153 2.7075e+01    14.6377      0.172      0.250    15.4433   999.0515 0.0000e+00
      0.183      0.009     6.7832     96.566     40.206  32.522197     5.0551      7.529   277.0278 2.6128e+01    14.4704      0.181      0.262    15.4429   999.0516 0.0000e+00
