* Sea-Bird SBE19plus  Data File:
* FileName = C:\DATA\110718_fcr_50_0001.hex
* Software version 2.6.3.104 SB_Terminal.dll
* Temperature SN = 7809
* Conductivity SN = 7809
* System UpLoad Time = Nov 07 2018 17:42:05
* <ApplicationData>
* <Seaterm232>
* <SoftwareVersion>2.6.3.104</SoftwareVersion>
* <BuildDate>30-Jun-2017</BuildDate>
* </Seaterm232>
* </ApplicationData>
* cast   1 07 Nov 2018 19:59:59 samples 1 to 1242, avg = 1, stop = mag switch
# nquan = 15
# nvalues = 1084                        
# units = specified
# name 0 = depFM: Depth [fresh water, m]
# name 1 = dz/dtM: Descent Rate [m/s]
# name 2 = sbeox0Mg/L: Oxygen, SBE 43 [mg/l]
# name 3 = sbeox0PS: Oxygen, SBE 43 [% saturation]
# name 4 = specc: Specific Conductance [uS/cm]
# name 5 = c0uS/cm: Conductivity [uS/cm]
# name 6 = flECO-AFL: Fluorescence, WET Labs ECO-AFL/FL [mg/m^3]
# name 7 = ph: pH
# name 8 = orp: Oxidation Reduction Potential [mV]
# name 9 = par/sat/log: PAR/Logarithmic, Satlantic
# name 10 = turbWETntu0: Turbidity, WET Labs ECO [NTU]
# name 11 = prdM: Pressure, Strain Gauge [db]
# name 12 = prdE: Pressure, Strain Gauge [psi]
# name 13 = tv290C: Temperature [ITS-90, deg C]
# name 14 = flag:  0.000e+00
# span 0 =     -0.567,      9.800       
# span 1 =     -0.159,      0.227       
# span 2 =     5.0017,    10.5668       
# span 3 =     46.268,    101.977       
# span 4 =      0.807,    354.156       
# span 5 =   0.745203, 260.822857       
# span 6 =    -0.8361,   257.9377       
# span 7 =     -2.617,      8.192       
# span 8 =   244.7744,   912.0273       
# span 9 = 1.2551e-01, 1.1223e+03       
# span 10 =    -5.5072,    20.0471      
# span 11 =     -0.556,      9.611      
# span 12 =     -0.807,     13.940      
# span 13 =    11.7113,    21.2310      
# span 14 = 0.0000e+00, 0.0000e+00      
# interval = seconds: 0.25
# start_time = Nov 07 2018 19:59:59 [Instrument's time stamp, header]
# bad_flag = -9.990e-29
# <Sensors count="9" >
#   <sensor Channel="1" >
#     <!-- Count, Temperature -->
#     <TemperatureSensor SensorID="58" >
#       <SerialNumber>7809</SerialNumber>
#       <CalibrationDate>09-Mar-18</CalibrationDate>
#       <A0>1.21093245e-003</A0>
#       <A1>2.84356597e-004</A1>
#       <A2>-1.94507398e-006</A2>
#       <A3>2.12806664e-007</A3>
#       <Slope>1.00000000</Slope>
#       <Offset>0.0000</Offset>
#     </TemperatureSensor>
#   </sensor>
#   <sensor Channel="2" >
#     <!-- Frequency 0, Conductivity -->
#     <ConductivitySensor SensorID="3" >
#       <SerialNumber>7809</SerialNumber>
#       <CalibrationDate>09-Mar-18</CalibrationDate>
#       <UseG_J>1</UseG_J>
#       <!-- Cell const and series R are applicable only for wide range sensors. -->
#       <SeriesR>0.0000</SeriesR>
#       <CellConst>2000.0000</CellConst>
#       <ConductivityType>0</ConductivityType>
#       <Coefficients equation="0" >
#         <A>0.00000000e+000</A>
#         <B>0.00000000e+000</B>
#         <C>0.00000000e+000</C>
#         <D>0.00000000e+000</D>
#         <M>0.0</M>
#         <CPcor>-9.57000000e-008</CPcor>
#       </Coefficients>
#       <Coefficients equation="1" >
#         <G>-1.00672082e+000</G>
#         <H>1.26906489e-001</H>
#         <I>-1.40584351e-004</I>
#         <J>2.47837121e-005</J>
#         <CPcor>-9.57000000e-008</CPcor>
#         <CTcor>3.2500e-006</CTcor>
#         <!-- WBOTC not applicable unless ConductivityType = 1. -->
#         <WBOTC>0.00000000e+000</WBOTC>
#       </Coefficients>
#       <Slope>1.00000000</Slope>
#       <Offset>0.00000</Offset>
#     </ConductivitySensor>
#   </sensor>
#   <sensor Channel="3" >
#     <!-- Count, Pressure, Strain Gauge -->
#     <PressureSensor SensorID="46" >
#       <SerialNumber>7809</SerialNumber>
#       <CalibrationDate>07-Mar-18</CalibrationDate>
#       <PA0>-4.08176359e-002</PA0>
#       <PA1>4.85188419e-004</PA1>
#       <PA2>-3.51168169e-012</PA2>
#       <PTEMPA0>-5.37806900e+001</PTEMPA0>
#       <PTEMPA1>5.36620721e+001</PTEMPA1>
#       <PTEMPA2>4.87214332e-002</PTEMPA2>
#       <PTCA0>5.25213435e+005</PTCA0>
#       <PTCA1>1.79532409e+000</PTCA1>
#       <PTCA2>-2.84353509e-001</PTCA2>
#       <PTCB0>2.51668750e+001</PTCB0>
#       <PTCB1>3.75000000e-004</PTCB1>
#       <PTCB2>0.00000000e+000</PTCB2>
#       <Offset>0.000000</Offset>
#     </PressureSensor>
#   </sensor>
#   <sensor Channel="4" >
#     <!-- A/D voltage 0, pH -->
#     <pH_Sensor SensorID="43" >
#       <SerialNumber>0363</SerialNumber>
#       <CalibrationDate>16-Mar-18</CalibrationDate>
#       <Slope>4.6194</Slope>
#       <Offset>2.5947</Offset>
#     </pH_Sensor>
#   </sensor>
#   <sensor Channel="5" >
#     <!-- A/D voltage 1, Oxidation Reduction Potential -->
#     <OxidationReductionPotentialSensor SensorID="41" >
#       <SerialNumber>0363</SerialNumber>
#       <CalibrationDate>16-Mar-18</CalibrationDate>
#       <B>2.499480</B>
#       <M>-0.496195</M>
#       <Offset>0.0</Offset>
#     </OxidationReductionPotentialSensor>
#   </sensor>
#   <sensor Channel="6" >
#     <!-- A/D voltage 2, Oxygen, SBE 43 -->
#     <OxygenSensor SensorID="38" >
#       <SerialNumber>0434</SerialNumber>
#       <CalibrationDate>13-Mar-18</CalibrationDate>
#       <Use2007Equation>1</Use2007Equation>
#       <CalibrationCoefficients equation="0" >
#         <!-- Coefficients for Owens-Millard equation. -->
#         <Boc>0.0000</Boc>
#         <Soc>0.0000e+000</Soc>
#         <offset>0.0000</offset>
#         <Pcor>0.00e+000</Pcor>
#         <Tcor>0.0000</Tcor>
#         <Tau>0.0</Tau>
#       </CalibrationCoefficients>
#       <CalibrationCoefficients equation="1" >
#         <!-- Coefficients for Sea-Bird equation - SBE calibration in 2007 and later. -->
#         <Soc>4.5718e-001</Soc>
#         <offset>-0.6113</offset>
#         <A>-4.0649e-003</A>
#         <B> 2.0945e-004</B>
#         <C>-3.3182e-006</C>
#         <D0> 2.5826e+000</D0>
#         <D1> 1.92634e-004</D1>
#         <D2>-4.64803e-002</D2>
#         <E> 3.6000e-002</E>
#         <Tau20> 1.2200</Tau20>
#         <H1>-3.3000e-002</H1>
#         <H2> 5.0000e+003</H2>
#         <H3> 1.4500e+003</H3>
#       </CalibrationCoefficients>
#     </OxygenSensor>
#   </sensor>
#   <sensor Channel="7" >
#     <!-- A/D voltage 3, PAR/Logarithmic, Satlantic -->
#     <PARLog_SatlanticSensor SensorID="76" >
#       <SerialNumber>1122</SerialNumber>
#       <CalibrationDate>22-Jun-2017</CalibrationDate>
#       <a0>9.6090e-001</a0>
#       <a1>8.0780e-001</a1>
#       <Im>1.3589e+000</Im>
#       <Multiplier>1.0000e+000</Multiplier>
#     </PARLog_SatlanticSensor>
#   </sensor>
#   <sensor Channel="8" >
#     <!-- A/D voltage 4, Fluorometer, WET Labs ECO-AFL/FL -->
#     <FluoroWetlabECO_AFL_FL_Sensor SensorID="20" >
#       <SerialNumber>FLNTURT-2496</SerialNumber>
#       <CalibrationDate>25-Jan-2017</CalibrationDate>
#       <ScaleFactor>5.30000000e+001</ScaleFactor>
#       <!-- Dark output -->
#       <Vblank>0.0560</Vblank>
#     </FluoroWetlabECO_AFL_FL_Sensor>
#   </sensor>
#   <sensor Channel="9" >
#     <!-- A/D voltage 5, Turbidity Meter, WET Labs, ECO-NTU -->
#     <TurbidityMeter SensorID="67" >
#       <SerialNumber>FLNTURT-2496</SerialNumber>
#       <CalibrationDate>25-Jan-2017</CalibrationDate>
#       <ScaleFactor>176.000000</ScaleFactor>
#       <!-- Dark output -->
#       <DarkVoltage>0.072000</DarkVoltage>
#     </TurbidityMeter>
#   </sensor>
# </Sensors>
# datcnv_date = Nov 07 2018 17:44:11, 7.26.7.114 [datcnv_vars = 14]
# datcnv_in = C:\DATA\110718_fcr_50_0001.hex C:\DATA\SBE19plusV2_7809.xmlcon
# datcnv_skipover = 0
# datcnv_ox_hysteresis_correction = yes
# datcnv_ox_tau_correction = yes
# filter_date = Nov 07 2018 17:44:35, 7.26.7.114
# filter_in = C:\DATA\110718_fcr_50_0001.cnv
# filter_low_pass_tc_A = 0.030
# filter_low_pass_tc_B = 0.150
# filter_low_pass_A_vars = prdM prdE tv290C
# filter_low_pass_B_vars = depFM dz/dtM sbeox0Mg/L sbeox0PS specc c0uS/cm flECO-AFL ph orp par/sat/log turbWETntu0
# alignctd_date = Nov 07 2018 17:44:54, 7.26.7.114
# alignctd_in = C:\DATA\110718_fcr_50_0001.cnv
# alignctd_adv = dz/dtM 1.000, sbeox0Mg/L 1.000, sbeox0PS 1.000, specc 1.000, c0uS/cm 1.000, flECO-AFL 1.000, ph 1.000, orp 1.000, turbWETntu0 1.000                                                                                 
# file_type = ascii
*END*
     -0.567      0.000     8.7978     99.060      0.807   0.745203    -0.1863     -2.523   747.8903 1.4880e+02    -0.0407     -0.556     -0.807    21.1974 0.0000e+00
     -0.567      0.000     8.7990     99.078      0.822   0.759237    -0.1810     -2.609   591.4751 1.8560e+02    -0.0103     -0.555     -0.805    21.1958 0.0000e+00
     -0.567      0.001     8.8000     99.094      0.823   0.760679    -0.1855     -2.617   588.2590 4.1104e+02     0.0124     -0.556     -0.806    21.1945 0.0000e+00
     -0.567      0.001     8.7987     99.084      0.825   0.762648    -0.1855     -2.617   621.2445 6.2884e+02     0.0204     -0.556     -0.807    21.1888 0.0000e+00
     -0.566      0.001     8.7971     99.064      0.848   0.783047    -0.1265     -2.614   636.4203 6.2672e+02     0.0250     -0.555     -0.805    21.1916 0.0000e+00
     -0.566      0.001     8.7989     99.060      1.095   1.007317     0.4090     -2.582   752.1316 5.7864e+02     0.0378     -0.556     -0.806    21.1892 0.0000e+00
     -0.566      0.006     8.8191     99.060      3.810   3.474275     6.2247     -2.237   912.0273 3.7339e+02     0.0841     -0.555     -0.805    21.2017 0.0000e+00
     -0.566      0.023     8.9305     99.063     12.396  11.075554    70.2275     -0.668   878.5182 3.7579e+02     0.7368     -0.555     -0.806    21.1896 0.0000e+00
     -0.566      0.053     9.1757     99.047     24.737  21.540758   187.5657      2.173   559.6652 7.8729e+02     1.9784     -0.554     -0.804    21.2120 0.0000e+00
     -0.564      0.094     9.4658     99.027     33.747  28.596349   251.5681      4.788   326.7251 1.0431e+03     2.6750     -0.556     -0.807    21.1717 0.0000e+00
     -0.547      0.139     9.7155     99.046     36.934  30.490862   257.3981      6.411   292.3687 1.0431e+03     3.0253     -0.551     -0.798    21.2310 0.0000e+00
     -0.498      0.179     9.9179     99.095     37.531  30.286797   257.9356      7.322   277.7980 1.0059e+03     6.2751     -0.496     -0.720    20.8367 0.0000e+00
     -0.426      0.209    10.0754     99.178     37.908  30.065618   257.9377      7.806   268.0819 1.0118e+03    12.1828     -0.415     -0.602    19.1205 0.0000e+00
     -0.352      0.227    10.1924     99.352     38.390  30.102230   257.4142      8.056   265.0616 1.0444e+03    15.3715     -0.344     -0.498    17.3809 0.0000e+00
     -0.284      0.225    10.2768     99.627     38.870  30.284516   251.6156      8.161   263.0479 1.0571e+03    15.3494     -0.275     -0.398    16.2317 0.0000e+00
     -0.229      0.204    10.3423    100.015     39.165  30.427712   187.8456      8.191   262.3185 1.0867e+03    12.0070     -0.222     -0.321    15.2570 0.0000e+00
     -0.183      0.172    10.4057    100.525     39.305  30.499862    70.9311      8.192   263.8990 1.1223e+03     5.9039     -0.182     -0.263    14.5726 0.0000e+00
     -0.139      0.138    10.4633    101.023     39.360  30.521753     7.1486      8.173   262.2826 1.1170e+03     2.6238     -0.130     -0.189    14.1343 0.0000e+00
     -0.107      0.108    10.5096    101.436     39.350  30.501851     1.3412      8.141   257.9176 1.1157e+03     2.3778     -0.097     -0.141    13.9053 0.0000e+00
     -0.090      0.083    10.5455    101.771     39.288  30.449742     0.7976      8.104   254.6584 1.1134e+03     2.2575     -0.089     -0.129    13.8217 0.0000e+00
     -0.077      0.062    10.5668    101.977     39.224  30.399763     0.7230      8.063   251.3544 1.0918e+03     2.0244     -0.076     -0.110    13.7930 0.0000e+00
     -0.066      0.045    10.5624    101.934     39.150  30.342117     0.7053      8.016   247.5672 1.0718e+03     1.9395     -0.063     -0.093    13.7643 0.0000e+00
     -0.057      0.033    10.4249    100.602     39.047  30.260805     0.7116      7.971   245.5198 1.0554e+03     1.9631     -0.056     -0.082    13.7501 0.0000e+00
     -0.050      0.026    10.0643     97.132     38.936  30.178704     0.7251      7.938   245.2709 1.0472e+03     1.9441     -0.048     -0.070    13.7466 0.0000e+00
     -0.044      0.021     9.6507     93.187     38.826  30.111530     0.7410      7.910   245.3319 1.0372e+03     1.9233     -0.041     -0.062    13.7483 0.0000e+00
     -0.041      0.016     9.3825     90.663     38.757  30.083700     0.7657      7.875   245.6558 1.0268e+03     1.9252     -0.039     -0.057    13.7505 0.0000e+00
     -0.039      0.012     9.2415     89.347     38.751  30.096274     0.7762      7.838   246.0888 1.0268e+03     1.9360     -0.038     -0.055    13.7438 0.0000e+00
     -0.036      0.010     9.1227     88.215     38.794  30.136574     0.7664      7.805   246.1793 1.0272e+03     1.9323     -0.036     -0.051    13.7422 0.0000e+00
     -0.034      0.009     8.9908     86.943     38.861  30.189921     0.7573      7.777   245.8037 1.0307e+03     1.9110     -0.033     -0.047    13.7701 0.0000e+00
     -0.032      0.008     8.8874     85.936     38.921  30.233241     0.7593      7.750   245.0755 1.0368e+03     1.8915     -0.031     -0.045    13.8123 0.0000e+00
     -0.031      0.008     8.8399     85.457     38.991  30.279308     0.7718      7.724   244.7744 1.0418e+03     1.8798     -0.030     -0.044    13.8364 0.0000e+00
     -0.028      0.007     8.8214     85.258     39.112  30.365858     0.7797      7.702   245.6908 1.0506e+03     1.8917     -0.027     -0.040    13.8397 0.0000e+00
     -0.025      0.005     8.7739     84.791     39.230  30.454108     0.7892      7.682   247.4645 1.0572e+03     1.9127     -0.024     -0.034    13.8415 0.0000e+00
     -0.024      0.004     8.6836     83.913     39.238  30.457225     0.8138      7.666   248.4107 1.0617e+03     1.9213     -0.023     -0.033    13.8397 0.0000e+00
     -0.024      0.002     8.5897     82.995     39.174  30.403537     0.8292      7.654   248.0115 1.0654e+03     1.9343     -0.023     -0.034    13.8251 0.0000e+00
     -0.024      0.001     8.5246     82.358     39.143  30.376547     0.8276      7.644   247.2831 1.0529e+03     1.9470     -0.023     -0.033    13.8124 0.0000e+00
     -0.024      0.000     8.4852     81.988     39.148  30.384911     0.8401      7.634   246.9176 9.6457e+02     1.9226     -0.023     -0.034    13.8113 0.0000e+00
     -0.024 4.3059e-07     8.4441     81.622     39.203  30.441161     0.8523      7.626   247.0333 7.3279e+02     1.8841     -0.024     -0.034    13.8094 0.0000e+00
     -0.024      0.000     8.3819     81.060     39.319  30.548620     0.8470      7.616   247.3912 4.6538e+02     1.9089     -0.024     -0.035    13.8020 0.0000e+00
     -0.024      0.000     8.2804     80.110     39.455  30.668079     0.8493      7.606   247.8895 4.1787e+02     1.9472     -0.024     -0.034    13.7951 0.0000e+00
     -0.023      0.001     8.1322     78.695     39.622  30.805912     0.8527      7.596   248.5845 6.3760e+02     1.9506     -0.023     -0.033    13.7988 0.0000e+00
     -0.023      0.001     7.9674     77.113     39.792  30.944982     0.8511      7.589   249.0827 8.9087e+02     1.9499     -0.023     -0.033    13.8195 0.0000e+00
     -0.023      0.001     7.8270     75.768     39.875  31.015885     0.8490      7.583   249.0953 1.0127e+03     1.9386     -0.023     -0.033    13.8459 0.0000e+00
     -0.023      0.002     7.7331     74.871     39.884  31.028110     0.8449      7.574   249.1669 1.0390e+03     1.9366     -0.023     -0.033    13.8637 0.0000e+00
     -0.023      0.002     7.6936     74.498     39.879  31.029282     0.8472      7.561   249.6900 1.0415e+03     1.9253     -0.022     -0.032    13.8725 0.0000e+00
     -0.022      0.003     7.7121     74.681     39.877  31.030069     0.8500      7.546   250.6888 1.0432e+03     1.8936     -0.022     -0.032    13.8795 0.0000e+00
     -0.021      0.003     7.7858     75.394     39.888  31.037627     0.8515      7.535   252.5527 1.0463e+03     1.8887     -0.021     -0.030    13.8882 0.0000e+00
     -0.020      0.003     7.8980     76.470     39.919  31.057155     0.8468      7.528   254.4163 1.0510e+03     1.8969     -0.020     -0.029    13.8956 0.0000e+00
     -0.019      0.003     8.0219     77.656     39.951  31.075640     0.8391      7.523   254.7233 1.0522e+03     1.9016     -0.019     -0.028    13.9007 0.0000e+00
     -0.018      0.002     8.1339     78.726     39.953  31.070592     0.8587      7.520   254.1988 1.0525e+03     1.9146     -0.018     -0.026    13.9048 0.0000e+00
     -0.018      0.002     8.2189     79.535     39.947  31.059624     0.9004      7.517   253.9267 1.0553e+03     1.9320     -0.018     -0.026    13.9044 0.0000e+00
     -0.018      0.001     8.2758     80.077     39.966  31.070037     0.9205      7.513   253.6702 1.0567e+03     1.9292     -0.017     -0.025    13.8974 0.0000e+00
     -0.018      0.000     8.3093     80.396     39.968  31.069469     0.9182      7.508   253.5059 1.0569e+03     1.9412     -0.017     -0.025    13.8889 0.0000e+00
     -0.018 2.0335e-08     8.3194     80.491     39.949  31.052760     0.9096      7.502   254.6079 1.0564e+03     1.9860     -0.018     -0.026    13.8804 0.0000e+00
     -0.018 2.2369e-07     8.3075     80.372     39.958  31.058532     0.8894      7.495   256.7552 1.0543e+03     1.9822     -0.017     -0.025    13.8711 0.0000e+00
     -0.018 2.2369e-07     8.2832     80.135     39.982  31.075757     0.8666      7.490   257.8728 1.0530e+03     1.9257     -0.017     -0.025    13.8661 0.0000e+00
     -0.018 2.0363e-08     8.2616     79.921     39.978  31.070495     0.8453      7.485   257.2808 1.0508e+03     1.8829     -0.018     -0.026    13.8647 0.0000e+00
     -0.017 2.1565e-09     8.2497     79.800     39.965  31.058418     0.8345      7.479   256.0503 1.0445e+03     1.8920     -0.017     -0.025    13.8623 0.0000e+00
     -0.017 3.5549e-09     8.2444     79.745     39.965  31.056745     0.8371      7.473   255.3835 1.0373e+03     1.9140     -0.017     -0.025    13.8601 0.0000e+00
     -0.017 3.7271e-08     8.2404     79.710     39.955  31.050262     0.8398      7.468   255.5857 1.0328e+03     1.9053     -0.017     -0.025    13.8594 0.0000e+00
     -0.017 4.0981e-07     8.2348     79.665     39.941  31.043545     0.8399      7.463   256.1719 1.0313e+03     1.9081     -0.017     -0.025    13.8571 0.0000e+00
     -0.017      0.000     8.2239     79.572     39.928  31.039040     0.8560      7.458   256.5357 1.0314e+03     1.9485     -0.017     -0.025    13.8526 0.0000e+00
     -0.017      0.000     8.2030     79.384     39.946  31.059319     0.8966      7.453   256.7137 1.0318e+03     1.9963     -0.017     -0.024    13.8505 0.0000e+00
     -0.018      0.001     8.1677     79.058     39.987  31.098218     0.9176      7.449   257.1196 1.0327e+03     1.9979     -0.017     -0.025    13.8523 0.0000e+00
     -0.018      0.001     8.1177     78.591     40.015  31.128313     0.9078      7.447   258.0017 1.0345e+03     1.9674     -0.017     -0.025    13.8576 0.0000e+00
     -0.017      0.001     8.0576     78.035     40.052  31.169163     0.8977      7.444   259.0335 1.0372e+03     1.9642     -0.017     -0.024    13.8654 0.0000e+00
     -0.016      0.001     7.9963     77.475     40.086  31.211077     0.9143      7.441   259.6144 1.0400e+03     1.9888     -0.016     -0.023    13.8736 0.0000e+00
     -0.016      0.001     7.9412     76.976     40.120  31.254047     0.9530      7.438   259.9488 1.0421e+03     1.9908     -0.016     -0.023    13.8817 0.0000e+00
