* Sea-Bird SBE19plus  Data File:
* FileName = C:\DATA\110819_fcr50_0005.hex
* Software version 2.8.0.119 SB_Terminal.dll
* Temperature SN = 7809
* Conductivity SN = 7809
* System UpLoad Time = Nov 11 2019 10:24:12
* <ApplicationData>
* <Seaterm232>
* <SoftwareVersion>2.8.0.119</SoftwareVersion>
* <BuildDate>07-Nov-2018</BuildDate>
* </Seaterm232>
* </ApplicationData>
* cast   5 08 Nov 2019 14:10:08 samples 2521 to 3324, avg = 1, stop = mag switch
# nquan = 16
# nvalues = 726                         
# units = specified
# name 0 = depFM: Depth [fresh water, m]
# name 1 = dz/dtM: Descent Rate [m/s]
# name 2 = sbeox0ML/L: Oxygen, SBE 43 [ml/l]
# name 3 = sbeox0PS: Oxygen, SBE 43 [% saturation]
# name 4 = specc: Specific Conductance [uS/cm]
# name 5 = c0uS/cm: Conductivity [uS/cm]
# name 6 = flECO-AFL: Fluorescence, WET Labs ECO-AFL/FL [mg/m^3]
# name 7 = ph: pH
# name 8 = orp: Oxidation Reduction Potential [mV]
# name 9 = par/sat/log: PAR/Logarithmic, Satlantic
# name 10 = turbWETntu0: Turbidity, WET Labs ECO [NTU]
# name 11 = prdM: Pressure, Strain Gauge [db]
# name 12 = prdE: Pressure, Strain Gauge [psi]
# name 13 = tv290C: Temperature [ITS-90, deg C]
# name 14 = density00: Density [density, kg/m^3]
# name 15 = flag:  0.000e+00
# span 0 =     -0.535,      6.567       
# span 1 =     -0.281,      0.370       
# span 2 =     4.8934,     8.0203       
# span 3 =     64.100,    102.455       
# span 4 =      0.613,     42.774       
# span 5 =   0.395385,  30.424687       
# span 6 =    -1.1905,     4.8299       
# span 7 =      5.303,      7.085       
# span 8 =   218.1493,  1240.2295       
# span 9 = 1.2365e-01, 1.2656e+03       
# span 10 =    -1.6979,   913.6194      
# span 11 =     -0.526,      6.440      
# span 12 =     -0.763,      9.340      
# span 13 =     7.2096,    11.6141      
# span 14 =   999.5636,   999.8944      
# span 15 = 0.0000e+00, 0.0000e+00      
# interval = seconds: 0.25
# start_time = Nov 08 2019 14:10:08 [Instrument's time stamp, header]
# bad_flag = -9.990e-29
# <Sensors count="9" >
#   <sensor Channel="1" >
#     <!-- Count, Temperature -->
#     <TemperatureSensor SensorID="58" >
#       <SerialNumber>7809</SerialNumber>
#       <CalibrationDate>24-Mar-19</CalibrationDate>
#       <A0>1.21792325e-003</A0>
#       <A1>2.81669265e-004</A1>
#       <A2>-1.60333336e-006</A2>
#       <A3>1.98414625e-007</A3>
#       <Slope>1.00000000</Slope>
#       <Offset>0.0000</Offset>
#     </TemperatureSensor>
#   </sensor>
#   <sensor Channel="2" >
#     <!-- Frequency 0, Conductivity -->
#     <ConductivitySensor SensorID="3" >
#       <SerialNumber>7809</SerialNumber>
#       <CalibrationDate>24-Mar-19</CalibrationDate>
#       <UseG_J>1</UseG_J>
#       <!-- Cell const and series R are applicable only for wide range sensors. -->
#       <SeriesR>0.0000</SeriesR>
#       <CellConst>2000.0000</CellConst>
#       <ConductivityType>0</ConductivityType>
#       <Coefficients equation="0" >
#         <A>0.00000000e+000</A>
#         <B>0.00000000e+000</B>
#         <C>0.00000000e+000</C>
#         <D>0.00000000e+000</D>
#         <M>0.0</M>
#         <CPcor>-9.57000000e-008</CPcor>
#       </Coefficients>
#       <Coefficients equation="1" >
#         <G>-1.00589325e+000</G>
#         <H>1.26816302e-001</H>
#         <I>-1.51560448e-004</I>
#         <J>2.67137274e-005</J>
#         <CPcor>-9.57000000e-008</CPcor>
#         <CTcor>3.2500e-006</CTcor>
#         <!-- WBOTC not applicable unless ConductivityType = 1. -->
#         <WBOTC>0.00000000e+000</WBOTC>
#       </Coefficients>
#       <Slope>1.00000000</Slope>
#       <Offset>0.00000</Offset>
#     </ConductivitySensor>
#   </sensor>
#   <sensor Channel="3" >
#     <!-- Count, Pressure, Strain Gauge -->
#     <PressureSensor SensorID="46" >
#       <SerialNumber>7809</SerialNumber>
#       <CalibrationDate>11-Mar-19</CalibrationDate>
#       <PA0>4.56561833e-002</PA0>
#       <PA1>4.85095118e-004</PA1>
#       <PA2>-2.88327090e-012</PA2>
#       <PTEMPA0>-5.48784562e+001</PTEMPA0>
#       <PTEMPA1>5.53756816e+001</PTEMPA1>
#       <PTEMPA2>-5.86727098e-001</PTEMPA2>
#       <PTCA0>5.25246745e+005</PTCA0>
#       <PTCA1>1.22304214e+001</PTCA1>
#       <PTCA2>-3.56745036e-001</PTCA2>
#       <PTCB0>2.51668750e+001</PTCB0>
#       <PTCB1>3.75000000e-004</PTCB1>
#       <PTCB2>0.00000000e+000</PTCB2>
#       <Offset>0.000000</Offset>
#     </PressureSensor>
#   </sensor>
#   <sensor Channel="4" >
#     <!-- A/D voltage 0, Oxygen, SBE 43 -->
#     <OxygenSensor SensorID="38" >
#       <SerialNumber>0434</SerialNumber>
#       <CalibrationDate>13-Apr-19</CalibrationDate>
#       <Use2007Equation>1</Use2007Equation>
#       <CalibrationCoefficients equation="0" >
#         <!-- Coefficients for Owens-Millard equation. -->
#         <Boc>0.0000</Boc>
#         <Soc>0.0000e+000</Soc>
#         <offset>0.0000</offset>
#         <Pcor>0.00e+000</Pcor>
#         <Tcor>0.0000</Tcor>
#         <Tau>0.0</Tau>
#       </CalibrationCoefficients>
#       <CalibrationCoefficients equation="1" >
#         <!-- Coefficients for Sea-Bird equation - SBE calibration in 2007 and later. -->
#         <Soc>4.2007e-001</Soc>
#         <offset>-0.6109</offset>
#         <A>-4.3656e-003</A>
#         <B> 1.7017e-004</B>
#         <C>-2.5341e-006</C>
#         <D0> 2.5826e+000</D0>
#         <D1> 1.92634e-004</D1>
#         <D2>-4.64803e-002</D2>
#         <E> 3.6000e-002</E>
#         <Tau20> 1.1800</Tau20>
#         <H1>-3.3000e-002</H1>
#         <H2> 5.0000e+003</H2>
#         <H3> 1.4500e+003</H3>
#       </CalibrationCoefficients>
#     </OxygenSensor>
#   </sensor>
#   <sensor Channel="5" >
#     <!-- A/D voltage 1, PAR/Logarithmic, Satlantic -->
#     <PARLog_SatlanticSensor SensorID="76" >
#       <SerialNumber>1122</SerialNumber>
#       <CalibrationDate>08-May-2019</CalibrationDate>
#       <a0>9.7456e-001</a0>
#       <a1>8.1640e-001</a1>
#       <Im>1.3589e+000</Im>
#       <Multiplier>1.0000e+000</Multiplier>
#     </PARLog_SatlanticSensor>
#   </sensor>
#   <sensor Channel="6" >
#     <!-- A/D voltage 2, pH -->
#     <pH_Sensor SensorID="43" >
#       <SerialNumber>0363</SerialNumber>
#       <CalibrationDate>15-Apr-19</CalibrationDate>
#       <Slope>4.5952</Slope>
#       <Offset>2.5370</Offset>
#     </pH_Sensor>
#   </sensor>
#   <sensor Channel="7" >
#     <!-- A/D voltage 3, Oxidation Reduction Potential -->
#     <OxidationReductionPotentialSensor SensorID="41" >
#       <SerialNumber>0363</SerialNumber>
#       <CalibrationDate>15-Apr-19</CalibrationDate>
#       <B>2.499480</B>
#       <M>-0.496195</M>
#       <Offset>0.0</Offset>
#     </OxidationReductionPotentialSensor>
#   </sensor>
#   <sensor Channel="8" >
#     <!-- A/D voltage 4, Fluorometer, WET Labs ECO-AFL/FL -->
#     <FluoroWetlabECO_AFL_FL_Sensor SensorID="20" >
#       <SerialNumber>FLNTURT-2496</SerialNumber>
#       <CalibrationDate>08-May-2019</CalibrationDate>
#       <ScaleFactor>5.00000000e+001</ScaleFactor>
#       <!-- Dark output -->
#       <Vblank>0.0550</Vblank>
#     </FluoroWetlabECO_AFL_FL_Sensor>
#   </sensor>
#   <sensor Channel="9" >
#     <!-- A/D voltage 5, Turbidity Meter, WET Labs, ECO-NTU -->
#     <TurbidityMeter SensorID="67" >
#       <SerialNumber>FLNTURT-2496</SerialNumber>
#       <CalibrationDate>08-May-2019</CalibrationDate>
#       <ScaleFactor>189.000000</ScaleFactor>
#       <!-- Dark output -->
#       <DarkVoltage>0.071000</DarkVoltage>
#     </TurbidityMeter>
#   </sensor>
# </Sensors>
# datcnv_date = Nov 11 2019 10:29:33, 7.26.7.129 [datcnv_vars = 15]
# datcnv_in = C:\DATA\110819_fcr45.hex C:\DATA\SBE19plusV2_7809.xmlcon
# datcnv_skipover = 0
# datcnv_ox_hysteresis_correction = yes
# datcnv_ox_tau_correction = yes
# filter_date = Nov 11 2019 10:29:59, 7.26.7.129
# filter_in = C:\DATA\110819_fcr45.cnv
# filter_low_pass_tc_A = 0.030
# filter_low_pass_tc_B = 0.150
# filter_low_pass_A_vars = sbeox0ML/L prdM prdE tv290C density00
# filter_low_pass_B_vars = depFM dz/dtM sbeox0PS specc c0uS/cm flECO-AFL ph orp par/sat/log turbWETntu0
# alignctd_date = Nov 11 2019 10:30:18, 7.26.7.129
# alignctd_in = C:\DATA\110819_fcr45.cnv
# alignctd_adv = dz/dtM 1.000, sbeox0PS 1.000, specc 1.000, c0uS/cm 1.000, flECO-AFL 1.000, ph 1.000, orp 1.000, turbWETntu0 1.000                                                                                                   
# file_type = ascii
*END*
     -0.535     -0.001     8.0190     94.958      0.649   0.418719    -0.1593      5.303  1240.2295 1.0941e+03    -0.5459     -0.524     -0.760     7.2096   999.8944 0.0000e+00
     -0.535     -0.001     8.0173     94.954      0.649   0.418725    -0.1725      5.326  1240.2294 1.0631e+03    -0.5621     -0.525     -0.761     7.2134   999.8942 0.0000e+00
     -0.535      0.000     8.0203     94.935      0.613   0.395833    -0.1720      5.341  1240.2280 1.0264e+03    -0.5634     -0.526     -0.763     7.2179   999.8940 0.0000e+00
     -0.535      0.000     8.0196     94.926      0.613   0.395385    -0.1611      5.348  1240.2133 1.0764e+03    -0.4949     -0.525     -0.762     7.2250   999.8937 0.0000e+00
     -0.535      0.000     8.0195     94.927      0.641   0.413311    -0.1619      5.352  1240.0509 1.2072e+03    -0.3897     -0.526     -0.761     7.2335   999.8932 0.0000e+00
     -0.535      0.000     8.0187     94.931      0.752   0.485852    -0.1734      5.351  1238.2652 1.2656e+03    -0.3728     -0.525     -0.762     7.2397   999.8929 0.0000e+00
     -0.535      0.002     8.0141     94.933      2.551   1.652640    -0.1959      5.362  1218.6221 1.2004e+03    -0.3890     -0.525     -0.761     7.2434   999.8927 0.0000e+00
     -0.535      0.010     8.0140     94.913      9.725   6.346400    -0.4428      5.551  1002.5481 1.1454e+03    -0.6845     -0.525     -0.762     7.2449   999.8927 0.0000e+00
     -0.535      0.030     8.0148     94.830     23.851  15.786800    -0.9126      5.996   571.7691 9.7371e+02    -1.3240     -0.525     -0.761     7.2420   999.8929 0.0000e+00
     -0.534      0.065     8.0150     94.705     37.547  25.256902    -1.1774      6.456   284.4542 5.8402e+02    -1.6979     -0.525     -0.760     7.2426   999.8927 0.0000e+00
     -0.529      0.111     8.0154     94.593     42.774  29.271205    -1.1905      6.761   226.1511 3.4271e+02    -1.6658     -0.524     -0.761     7.2413   999.8928 0.0000e+00
     -0.503      0.166     8.0126     94.490     42.769  29.754264    -1.0542      6.939   220.6249 3.0973e+02    -0.9029     -0.507     -0.735     7.2589   999.8936 0.0000e+00
     -0.447      0.223     7.9254     94.400     42.402  29.892419    -0.8038      7.027   218.4975 2.8104e+02     0.4802     -0.444     -0.644     7.6629   999.8779 0.0000e+00
     -0.371      0.276     7.7499     94.352     42.022  29.926765    -0.6598      7.066   218.6691 2.8495e+02     1.2267     -0.367     -0.533     8.5057   999.8329 0.0000e+00
     -0.286      0.317     7.6036     94.365     41.602  29.852589    -0.5961      7.082   218.4837 3.6219e+02     1.4382     -0.284     -0.412     9.2572   999.7797 0.0000e+00
     -0.192      0.337     7.4943     94.446     41.157  29.693779    -0.0422      7.085   218.1493 4.0382e+02     3.0370     -0.188     -0.272     9.8196   999.7333 0.0000e+00
     -0.095      0.337     7.4037     94.616     40.775  29.529661     0.9738      7.080   218.7561 3.2942e+02     5.9084     -0.093     -0.135    10.2877   999.6927 0.0000e+00
     -0.000      0.319     7.3394     94.921     40.568  29.454688     1.5268      7.072   219.2812 2.8112e+02     7.4474      0.005      0.006    10.6380   999.6599 0.0000e+00
      0.084      0.285     7.2949     95.376     40.477  29.421898     1.5729      7.064   219.7658 3.1297e+02     7.5538      0.087      0.127    10.9044   999.6342 0.0000e+00
      0.154      0.238     7.2693     95.962     40.455  29.387058     1.5743      7.056   220.2274 3.4083e+02     7.4569      0.154      0.224    11.0922   999.6153 0.0000e+00
      0.213      0.185     7.2585     96.624     40.559  29.414123     1.5786      7.050   220.6463 3.6105e+02     7.2922      0.215      0.311    11.2218   999.6021 0.0000e+00
      0.256      0.132     7.2666     97.314     40.710  29.495271     1.5812      7.045   220.9594 3.9436e+02     7.2007      0.260      0.376    11.3148   999.5925 0.0000e+00
      0.276      0.084     7.2919     97.984     40.855  29.606748     1.5801      7.041   221.2604 4.1474e+02     7.1691      0.277      0.402    11.3694   999.5869 0.0000e+00
      0.280      0.043     7.3453     98.562     41.014  29.746750     1.5823      7.039   222.9949 3.8364e+02     7.1405      0.274      0.398    11.3355   999.5905 0.0000e+00
      0.280      0.012     7.4122     99.091     41.120  29.855537     1.5725      7.036   224.8943 4.1822e+02     7.1820      0.276      0.399    11.2433   999.6002 0.0000e+00
      0.279     -0.007     7.4729     99.865     41.148  29.906862     1.5481      7.033   224.0932 5.3464e+02     7.3114      0.278      0.401    11.2050   999.6042 0.0000e+00
      0.271     -0.017     7.5233    100.994     41.132  29.923164     1.5306      7.031   222.8591 5.7009e+02     7.3929      0.266      0.386    11.2250   999.6021 0.0000e+00
      0.262     -0.021     7.5627    101.995     41.100  29.925779     1.5259      7.029   223.5671 5.4199e+02     7.3817      0.253      0.369    11.2594   999.5985 0.0000e+00
      0.257     -0.021     7.5866    102.455     41.086  29.938506     1.5427      7.027   226.1136 4.8506e+02     7.4378      0.252      0.366    11.3002   999.5943 0.0000e+00
      0.252     -0.018     7.6266    102.277     41.076  29.950158     1.5779      7.022   229.0421 4.4133e+02     7.5798      0.248      0.359    11.3393   999.5901 0.0000e+00
      0.246     -0.013     7.7320    101.359     41.040  29.939773     1.5965      7.016   230.4109 4.3673e+02     7.6231      0.239      0.347    11.3731   999.5865 0.0000e+00
      0.243     -0.008     7.8133     99.635     41.019  29.939863     1.5939      7.010   230.6183 3.9213e+02     7.5678      0.237      0.344    11.4042   999.5832 0.0000e+00
      0.242     -0.004     7.8413     97.197     41.012  29.951268     1.6334      7.005   230.3447 3.8613e+02     7.4355      0.237      0.344    11.4326   999.5802 0.0000e+00
      0.243     -0.002     7.8293     94.337     40.993  29.950783     1.7189      7.003   230.0283 4.4063e+02     7.2370      0.238      0.346    11.4548   999.5778 0.0000e+00
      0.245     -0.000     7.7569     91.413     40.959  29.934007     1.7684      7.002   230.3199 4.5759e+02     7.1340      0.241      0.350    11.4729   999.5759 0.0000e+00
      0.246     -0.000     7.6217     88.758     40.874  29.875349     1.7733      7.001   230.8599 4.4484e+02     7.1405      0.242      0.351    11.4921   999.5738 0.0000e+00
      0.245     -0.001     7.4212     86.512     40.786  29.812641     1.7603      7.000   231.1357 4.2204e+02     7.2170      0.241      0.349    11.5137   999.5715 0.0000e+00
      0.242     -0.001     7.1923     84.650     40.778  29.810353     1.7331      6.999   231.0737 4.1329e+02     7.3383      0.238      0.345    11.5324   999.5694 0.0000e+00
      0.241     -0.001     6.9561     83.160     40.823  29.847690     1.7212      6.998   230.1970 4.5823e+02     7.3941      0.236      0.342    11.5418   999.5684 0.0000e+00
      0.242     -0.000     6.7506     82.061     40.867  29.883358     1.7293      6.998   229.4840 4.9265e+02     7.3679      0.237      0.343    11.5436   999.5682 0.0000e+00
      0.243      0.001     6.5820     81.312     40.917  29.924349     1.7441      6.998   230.2819 4.6623e+02     7.3485      0.238      0.346    11.5437   999.5681 0.0000e+00
      0.244      0.003     6.4398     80.794     40.966  29.962590     1.7696      6.998   231.1544 4.8330e+02     7.3559      0.240      0.348    11.5477   999.5677 0.0000e+00
      0.244      0.005     6.3237     80.419     40.970  29.965008     1.7866      6.998   231.2572 5.7172e+02     7.3590      0.241      0.349    11.5545   999.5670 0.0000e+00
      0.244      0.006     6.2399     80.161     40.956  29.953576     1.7854      6.998   231.1810 5.9321e+02     7.3540      0.239      0.347    11.5593   999.5665 0.0000e+00
      0.246      0.006     6.1872     80.019     40.955  29.951280     1.7719      6.998   231.0935 4.9908e+02     7.3612      0.240      0.348    11.5646   999.5659 0.0000e+00
      0.250      0.006     6.1486     79.960     40.935  29.937248     1.7368      6.998   231.0583 4.2488e+02     7.3797      0.245      0.356    11.5687   999.5655 0.0000e+00
      0.253      0.006     6.1214     79.957     40.897  29.910819     1.6899      6.998   231.1000 4.5782e+02     7.3813      0.249      0.361    11.5680   999.5656 0.0000e+00
      0.253      0.005     6.1009     80.005     40.861  29.885541     1.6642      6.998   231.2539 4.8353e+02     7.3809      0.248      0.360    11.5649   999.5660 0.0000e+00
      0.254      0.002     6.0923     80.076     40.859  29.885435     1.6599      6.998   231.3703 4.2244e+02     7.3746      0.249      0.361    11.5627   999.5662 0.0000e+00
      0.254     -0.002     6.0883     80.136     40.891  29.909538     1.6733      6.997   231.3893 4.1577e+02     7.3707      0.250      0.363    11.5637   999.5661 0.0000e+00
      0.254     -0.004     6.0873     80.201     40.909  29.923163     1.6962      6.995   231.3970 4.4573e+02     7.3997      0.250      0.363    11.5659   999.5658 0.0000e+00
      0.252     -0.005     6.0919     80.315     40.911  29.923268     1.7029      6.994   231.3776 4.1426e+02     7.3964      0.248      0.360    11.5667   999.5657 0.0000e+00
      0.249     -0.006     6.0984     80.478     40.897  29.910796     1.7022      6.992   230.8968 4.1132e+02     7.3648      0.245      0.354    11.5677   999.5656 0.0000e+00
      0.247     -0.006     6.1025     80.654     40.884  29.899268     1.6966      6.990   230.2300 4.2787e+02     7.4433      0.242      0.351    11.5697   999.5654 0.0000e+00
      0.246     -0.005     6.1049     80.793     40.902  29.910796     1.6867      6.988   230.4566 4.0642e+02     7.5921      0.241      0.350    11.5709   999.5652 0.0000e+00
      0.245     -0.004     6.1144     80.862     40.922  29.923269     1.6865      6.987   231.0549 4.1080e+02     7.6566      0.241      0.349    11.5692   999.5654 0.0000e+00
      0.245     -0.001     6.1283     80.880     40.923  29.923165     1.6940      6.987   230.7524 4.3087e+02     7.6322      0.241      0.349    11.5661   999.5658 0.0000e+00
      0.244      0.003     6.1433     80.882     40.908  29.909539     1.7173      6.987   230.1554 3.7243e+02     7.5928      0.240      0.347    11.5638   999.5660 0.0000e+00
      0.244      0.006     6.1558     80.851     40.878  29.885416     1.7512      6.987   230.6335 3.1310e+02     7.5737      0.238      0.345    11.5610   999.5663 0.0000e+00
      0.245      0.010     6.1606     80.757     40.882  29.885314     1.7665      6.986   231.4575 3.2695e+02     7.5647      0.240      0.348    11.5584   999.5666 0.0000e+00
      0.249      0.012     6.1604     80.629     40.917  29.908302     1.7632      6.985   231.0835 3.3896e+02     7.5823      0.245      0.355    11.5577   999.5667 0.0000e+00
      0.255      0.012     6.1615     80.494     40.921  29.909541     1.7202      6.985   229.9835 3.1846e+02     7.5903      0.249      0.363    11.5558   999.5669 0.0000e+00
      0.260      0.011     6.1616     80.333     40.909  29.900292     1.6364      6.985   229.4285 3.0094e+02     7.5627      0.255      0.369    11.5513   999.5674 0.0000e+00
      0.263      0.009     6.1533     80.117     40.942  29.923385     1.5901      6.984   229.3634 3.0289e+02     7.5763      0.259      0.375    11.5472   999.5679 0.0000e+00
