* Sea-Bird SBE19plus  Data File:
* FileName = C:\DATA\110819_fcr50_0001.hex
* Software version 2.8.0.119 SB_Terminal.dll
* Temperature SN = 7809
* Conductivity SN = 7809
* System UpLoad Time = Nov 11 2019 10:23:09
* <ApplicationData>
* <Seaterm232>
* <SoftwareVersion>2.8.0.119</SoftwareVersion>
* <BuildDate>07-Nov-2018</BuildDate>
* </Seaterm232>
* </ApplicationData>
* cast   1 08 Nov 2019 12:45:17 samples 1 to 1219, avg = 1, stop = mag switch
# nquan = 16
# nvalues = 986                         
# units = specified
# name 0 = depFM: Depth [fresh water, m]
# name 1 = dz/dtM: Descent Rate [m/s]
# name 2 = sbeox0ML/L: Oxygen, SBE 43 [ml/l]
# name 3 = sbeox0PS: Oxygen, SBE 43 [% saturation]
# name 4 = specc: Specific Conductance [uS/cm]
# name 5 = c0uS/cm: Conductivity [uS/cm]
# name 6 = flECO-AFL: Fluorescence, WET Labs ECO-AFL/FL [mg/m^3]
# name 7 = ph: pH
# name 8 = orp: Oxidation Reduction Potential [mV]
# name 9 = par/sat/log: PAR/Logarithmic, Satlantic
# name 10 = turbWETntu0: Turbidity, WET Labs ECO [NTU]
# name 11 = prdM: Pressure, Strain Gauge [db]
# name 12 = prdE: Pressure, Strain Gauge [psi]
# name 13 = tv290C: Temperature [ITS-90, deg C]
# name 14 = density00: Density [density, kg/m^3]
# name 15 = flag:  0.000e+00
# span 0 =     -0.541,      9.627       
# span 1 =     -0.239,      0.453       
# span 2 =     5.3230,     8.8079       
# span 3 =     69.455,    104.705       
# span 4 =      2.906,     50.526       
# span 5 =   1.740296,  31.899679       
# span 6 =    -0.2103,     6.0093       
# span 7 =     -2.389,      8.279       
# span 8 =  -844.1010,   731.2611       
# span 9 = 1.2360e-01, 1.3419e+03       
# span 10 =    -0.5752,    53.9108      
# span 11 =     -0.533,      9.441      
# span 12 =     -0.772,     13.693      
# span 13 =     4.8152,    11.6830      
# span 14 =   999.5542,   999.9829      
# span 15 = 0.0000e+00, 0.0000e+00      
# interval = seconds: 0.25
# start_time = Nov 08 2019 12:45:17 [Instrument's time stamp, header]
# bad_flag = -9.990e-29
# <Sensors count="9" >
#   <sensor Channel="1" >
#     <!-- Count, Temperature -->
#     <TemperatureSensor SensorID="58" >
#       <SerialNumber>7809</SerialNumber>
#       <CalibrationDate>24-Mar-19</CalibrationDate>
#       <A0>1.21792325e-003</A0>
#       <A1>2.81669265e-004</A1>
#       <A2>-1.60333336e-006</A2>
#       <A3>1.98414625e-007</A3>
#       <Slope>1.00000000</Slope>
#       <Offset>0.0000</Offset>
#     </TemperatureSensor>
#   </sensor>
#   <sensor Channel="2" >
#     <!-- Frequency 0, Conductivity -->
#     <ConductivitySensor SensorID="3" >
#       <SerialNumber>7809</SerialNumber>
#       <CalibrationDate>24-Mar-19</CalibrationDate>
#       <UseG_J>1</UseG_J>
#       <!-- Cell const and series R are applicable only for wide range sensors. -->
#       <SeriesR>0.0000</SeriesR>
#       <CellConst>2000.0000</CellConst>
#       <ConductivityType>0</ConductivityType>
#       <Coefficients equation="0" >
#         <A>0.00000000e+000</A>
#         <B>0.00000000e+000</B>
#         <C>0.00000000e+000</C>
#         <D>0.00000000e+000</D>
#         <M>0.0</M>
#         <CPcor>-9.57000000e-008</CPcor>
#       </Coefficients>
#       <Coefficients equation="1" >
#         <G>-1.00589325e+000</G>
#         <H>1.26816302e-001</H>
#         <I>-1.51560448e-004</I>
#         <J>2.67137274e-005</J>
#         <CPcor>-9.57000000e-008</CPcor>
#         <CTcor>3.2500e-006</CTcor>
#         <!-- WBOTC not applicable unless ConductivityType = 1. -->
#         <WBOTC>0.00000000e+000</WBOTC>
#       </Coefficients>
#       <Slope>1.00000000</Slope>
#       <Offset>0.00000</Offset>
#     </ConductivitySensor>
#   </sensor>
#   <sensor Channel="3" >
#     <!-- Count, Pressure, Strain Gauge -->
#     <PressureSensor SensorID="46" >
#       <SerialNumber>7809</SerialNumber>
#       <CalibrationDate>11-Mar-19</CalibrationDate>
#       <PA0>4.56561833e-002</PA0>
#       <PA1>4.85095118e-004</PA1>
#       <PA2>-2.88327090e-012</PA2>
#       <PTEMPA0>-5.48784562e+001</PTEMPA0>
#       <PTEMPA1>5.53756816e+001</PTEMPA1>
#       <PTEMPA2>-5.86727098e-001</PTEMPA2>
#       <PTCA0>5.25246745e+005</PTCA0>
#       <PTCA1>1.22304214e+001</PTCA1>
#       <PTCA2>-3.56745036e-001</PTCA2>
#       <PTCB0>2.51668750e+001</PTCB0>
#       <PTCB1>3.75000000e-004</PTCB1>
#       <PTCB2>0.00000000e+000</PTCB2>
#       <Offset>0.000000</Offset>
#     </PressureSensor>
#   </sensor>
#   <sensor Channel="4" >
#     <!-- A/D voltage 0, Oxygen, SBE 43 -->
#     <OxygenSensor SensorID="38" >
#       <SerialNumber>0434</SerialNumber>
#       <CalibrationDate>13-Apr-19</CalibrationDate>
#       <Use2007Equation>1</Use2007Equation>
#       <CalibrationCoefficients equation="0" >
#         <!-- Coefficients for Owens-Millard equation. -->
#         <Boc>0.0000</Boc>
#         <Soc>0.0000e+000</Soc>
#         <offset>0.0000</offset>
#         <Pcor>0.00e+000</Pcor>
#         <Tcor>0.0000</Tcor>
#         <Tau>0.0</Tau>
#       </CalibrationCoefficients>
#       <CalibrationCoefficients equation="1" >
#         <!-- Coefficients for Sea-Bird equation - SBE calibration in 2007 and later. -->
#         <Soc>4.2007e-001</Soc>
#         <offset>-0.6109</offset>
#         <A>-4.3656e-003</A>
#         <B> 1.7017e-004</B>
#         <C>-2.5341e-006</C>
#         <D0> 2.5826e+000</D0>
#         <D1> 1.92634e-004</D1>
#         <D2>-4.64803e-002</D2>
#         <E> 3.6000e-002</E>
#         <Tau20> 1.1800</Tau20>
#         <H1>-3.3000e-002</H1>
#         <H2> 5.0000e+003</H2>
#         <H3> 1.4500e+003</H3>
#       </CalibrationCoefficients>
#     </OxygenSensor>
#   </sensor>
#   <sensor Channel="5" >
#     <!-- A/D voltage 1, PAR/Logarithmic, Satlantic -->
#     <PARLog_SatlanticSensor SensorID="76" >
#       <SerialNumber>1122</SerialNumber>
#       <CalibrationDate>08-May-2019</CalibrationDate>
#       <a0>9.7456e-001</a0>
#       <a1>8.1640e-001</a1>
#       <Im>1.3589e+000</Im>
#       <Multiplier>1.0000e+000</Multiplier>
#     </PARLog_SatlanticSensor>
#   </sensor>
#   <sensor Channel="6" >
#     <!-- A/D voltage 2, pH -->
#     <pH_Sensor SensorID="43" >
#       <SerialNumber>0363</SerialNumber>
#       <CalibrationDate>15-Apr-19</CalibrationDate>
#       <Slope>4.5952</Slope>
#       <Offset>2.5370</Offset>
#     </pH_Sensor>
#   </sensor>
#   <sensor Channel="7" >
#     <!-- A/D voltage 3, Oxidation Reduction Potential -->
#     <OxidationReductionPotentialSensor SensorID="41" >
#       <SerialNumber>0363</SerialNumber>
#       <CalibrationDate>15-Apr-19</CalibrationDate>
#       <B>2.499480</B>
#       <M>-0.496195</M>
#       <Offset>0.0</Offset>
#     </OxidationReductionPotentialSensor>
#   </sensor>
#   <sensor Channel="8" >
#     <!-- A/D voltage 4, Fluorometer, WET Labs ECO-AFL/FL -->
#     <FluoroWetlabECO_AFL_FL_Sensor SensorID="20" >
#       <SerialNumber>FLNTURT-2496</SerialNumber>
#       <CalibrationDate>08-May-2019</CalibrationDate>
#       <ScaleFactor>5.00000000e+001</ScaleFactor>
#       <!-- Dark output -->
#       <Vblank>0.0550</Vblank>
#     </FluoroWetlabECO_AFL_FL_Sensor>
#   </sensor>
#   <sensor Channel="9" >
#     <!-- A/D voltage 5, Turbidity Meter, WET Labs, ECO-NTU -->
#     <TurbidityMeter SensorID="67" >
#       <SerialNumber>FLNTURT-2496</SerialNumber>
#       <CalibrationDate>08-May-2019</CalibrationDate>
#       <ScaleFactor>189.000000</ScaleFactor>
#       <!-- Dark output -->
#       <DarkVoltage>0.071000</DarkVoltage>
#     </TurbidityMeter>
#   </sensor>
# </Sensors>
# datcnv_date = Nov 11 2019 10:29:33, 7.26.7.129 [datcnv_vars = 15]
# datcnv_in = C:\DATA\110819_fcr50.hex C:\DATA\SBE19plusV2_7809.xmlcon
# datcnv_skipover = 0
# datcnv_ox_hysteresis_correction = yes
# datcnv_ox_tau_correction = yes
# filter_date = Nov 11 2019 10:29:59, 7.26.7.129
# filter_in = C:\DATA\110819_fcr50.cnv
# filter_low_pass_tc_A = 0.030
# filter_low_pass_tc_B = 0.150
# filter_low_pass_A_vars = sbeox0ML/L prdM prdE tv290C density00
# filter_low_pass_B_vars = depFM dz/dtM sbeox0PS specc c0uS/cm flECO-AFL ph orp par/sat/log turbWETntu0
# alignctd_date = Nov 11 2019 10:30:18, 7.26.7.129
# alignctd_in = C:\DATA\110819_fcr50.cnv
# alignctd_adv = dz/dtM 1.000, sbeox0PS 1.000, specc 1.000, c0uS/cm 1.000, flECO-AFL 1.000, ph 1.000, orp 1.000, turbWETntu0 1.000                                                                                                   
# file_type = ascii
*END*
     -0.541 4.3140e-20     8.7864     98.025      2.994   1.791167     0.0184     -2.389    81.2467 1.3419e+03    -0.5230     -0.530     -0.769     4.8797   999.9680 0.0000e+00
     -0.540 3.9339e-21     8.7849     98.009      3.031   1.814105     0.0253     -0.778  -148.5924 1.0689e+03    -0.4642     -0.530     -0.769     4.8895   999.9679 0.0000e+00
     -0.540 4.9042e-22     8.7819     97.981      3.051   1.826526     0.0237      1.467  -322.2500 4.8091e+02    -0.4504     -0.530     -0.769     4.8998   999.9678 0.0000e+00
     -0.541 1.5054e-21     8.7820     97.956      3.031   1.814614    -0.0270      3.416  -552.9251 1.3540e+02    -0.4548     -0.530     -0.769     4.9074   999.9676 0.0000e+00
     -0.541 1.6206e-20     8.7789     97.961      3.001   1.796804    -0.1188      4.699  -717.3360 9.6271e+01    -0.3860     -0.530     -0.769     4.9141   999.9675 0.0000e+00
     -0.541 1.7823e-19     8.7767     97.967      3.008   1.801296    -0.1675      5.414  -796.6120 9.0627e+01    -0.3070     -0.530     -0.769     4.9196   999.9675 0.0000e+00
     -0.541 1.9606e-18     8.7728     97.971      3.015   1.805562    -0.1563      5.746  -804.0302 8.9157e+01    -0.2863     -0.530     -0.769     4.9261   999.9674 0.0000e+00
     -0.541 2.1566e-17     8.7656     97.987      2.980   1.785012    -0.1486      5.878  -794.3806 8.9069e+01    -0.2995     -0.530     -0.769     4.9342   999.9673 0.0000e+00
     -0.541 2.3723e-16     8.7682     98.007      2.910   1.742928    -0.1602      5.975  -792.3933 9.0217e+01    -0.3026     -0.530     -0.769     4.9408   999.9671 0.0000e+00
     -0.541 2.6095e-15     8.7670     98.012      2.906   1.740296    -0.1671      6.025  -844.1010 9.1773e+01    -0.2907     -0.531     -0.770     4.9434   999.9671 0.0000e+00
     -0.541 2.8704e-14     8.7663     98.010      3.035   1.816552    -0.1625      5.395  -686.9496 9.4429e+01    -0.2875     -0.530     -0.769     4.9453   999.9671 0.0000e+00
     -0.541 3.1575e-13     8.7674     98.014      3.290   1.967900    -0.1572      4.062  -342.2226 1.0007e+02    -0.3286     -0.530     -0.768     4.9492   999.9670 0.0000e+00
     -0.541 3.4732e-12     8.7698     98.011      3.640   2.176160    -0.1545      3.399  -288.3941 1.0955e+02    -0.4278     -0.530     -0.769     4.9498   999.9670 0.0000e+00
     -0.540 3.8206e-11     8.7721     98.000      3.860   2.306840    -0.1562      2.832  -208.4508 1.1875e+02    -0.5034     -0.529     -0.768     4.9409   999.9671 0.0000e+00
     -0.540 4.2026e-10     8.7737     97.989      3.923   2.343956    -0.1687      0.914   144.6956 1.2308e+02    -0.5216     -0.529     -0.768     4.9257   999.9674 0.0000e+00
     -0.540 4.6229e-09     8.7804     98.009      3.969   2.371447    -0.1846     -1.102   329.0164 1.2453e+02    -0.5162     -0.529     -0.769     4.9086   999.9677 0.0000e+00
     -0.540 5.0852e-08     8.7819     98.047      3.993   2.385766    -0.2002     -2.014   287.2392 1.2687e+02    -0.5037     -0.530     -0.768     4.8929   999.9681 0.0000e+00
     -0.540 5.5937e-07     8.7850     98.067      4.002   2.390348    -0.2103     -2.130   220.2506 1.3063e+02    -0.5357     -0.529     -0.769     4.8810   999.9683 0.0000e+00
     -0.540      0.000     8.7842     98.067      4.064   2.426844    -0.2035     -1.857   201.0092 1.3251e+02    -0.5752     -0.530     -0.768     4.8697   999.9685 0.0000e+00
     -0.540      0.000     8.7863     98.051      4.205   2.510191    -0.1783     -1.435   141.6660 1.2996e+02    -0.5557     -0.530     -0.769     4.8690   999.9684 0.0000e+00
     -0.540      0.001     8.7919     98.045      4.524   2.701036    -0.1486     -0.611   107.3345 1.2057e+02    -0.5279     -0.530     -0.768     4.8728   999.9685 0.0000e+00
     -0.540      0.003     8.7914     98.059      6.432   3.847176    -0.1386      0.594   421.6538 1.0857e+02    -0.5010     -0.529     -0.769     4.8748   999.9683 0.0000e+00
     -0.540      0.020     8.7978     98.039     19.629  11.805325    -0.1443      2.076   731.2611 9.9148e+01    -0.4930     -0.528     -0.767     4.8543   999.9689 0.0000e+00
     -0.540      0.076     8.7952     97.881     41.229  25.170320    -0.1392      4.108   574.6530 9.3098e+01    -0.4980     -0.530     -0.770     4.8478   999.9685 0.0000e+00
     -0.539      0.176     8.7987     97.581     50.526  31.820113    -0.0169      5.955   370.3913 9.9906e+01     0.1601     -0.526     -0.764     4.8312   999.9696 0.0000e+00
     -0.532      0.291     8.7953     97.272     48.443  31.899679     0.2071      7.014   343.7861 1.1353e+02     1.4668     -0.533     -0.772     4.8545   999.9679 0.0000e+00
     -0.472      0.387     8.8079     97.080     46.341  31.655043     0.3328      7.598   336.5165 1.1977e+02     2.2250     -0.515     -0.746     4.8152   999.9716 0.0000e+00
     -0.305      0.444     8.7389     97.065     45.110  31.528750     0.3934      7.922   332.3972 1.1227e+02     2.6750     -0.326     -0.473     5.0556   999.9829 0.0000e+00
     -0.081      0.453     8.4171     97.251     44.486  31.515666     0.9055      8.100   329.5140 9.6492e+01     6.8430     -0.051     -0.075     6.3828   999.9480 0.0000e+00
      0.094      0.409     8.0311     97.648     44.179  31.560724     1.8429      8.195   327.4687 9.3322e+01    14.4723      0.127      0.185     8.1272   999.8615 0.0000e+00
      0.180      0.313     7.7820     98.238     43.870  31.502678     2.3552      8.246   325.9079 9.9704e+01    18.6258      0.196      0.285     9.3446   999.7756 0.0000e+00
      0.209      0.188     7.6501     98.963     43.498  31.321680     2.3918      8.272   324.4945 1.0375e+02    19.0143      0.209      0.303    10.0571   999.7157 0.0000e+00
      0.212      0.078     7.5893     99.723     43.291  31.212675     2.3378      8.279   323.4579 1.0928e+02    19.2683      0.215      0.311    10.4750   999.6773 0.0000e+00
      0.197      0.012     7.5724    100.412     43.241  31.200088     2.2478      8.274   322.7528 1.2453e+02    19.6975      0.198      0.287    10.7514   999.6507 0.0000e+00
      0.173     -0.014     7.5864    100.964     43.083  31.106053     2.2137      8.264   321.9918 1.4817e+02    20.0095      0.163      0.236    10.9343   999.6323 0.0000e+00
      0.163     -0.020     7.6308    101.348     42.863  30.964133     2.2204      8.254   320.8816 1.6846e+02    20.8119      0.151      0.218    11.0211   999.6233 0.0000e+00
      0.170     -0.022     7.6871    101.600     42.734  30.880228     2.2248      8.245   319.6539 1.9042e+02    29.4639      0.167      0.242    11.0494   999.6204 0.0000e+00
      0.179     -0.024     7.7377    102.055     42.698  30.853064     2.2416      8.236   318.8496 2.1846e+02    45.3445      0.181      0.262    11.0763   999.6179 0.0000e+00
      0.179     -0.027     7.7761    103.009     42.750  30.889518     2.2583      8.226   318.4699 2.1387e+02    53.9108      0.180      0.260    11.0959   999.6157 0.0000e+00
      0.165     -0.033     7.8038    104.102     42.817  30.940250     2.2714      8.213   318.1605 1.6468e+02    53.6309      0.166      0.241    11.1220   999.6129 0.0000e+00
      0.143     -0.038     7.8110    104.705     42.832  30.958810     2.3300      8.200   317.6891 1.2335e+02    41.9283      0.139      0.201    11.1333   999.6116 0.0000e+00
      0.123     -0.035     7.8298    104.485     42.847  30.987020     2.4375      8.187   317.0727 1.0543e+02    20.3343      0.117      0.169    11.1250   999.6122 0.0000e+00
      0.113     -0.022     7.9195    103.320     42.866  31.027521     2.5048      8.177   316.4723 9.5028e+01     8.5739      0.108      0.156    11.1246   999.6123 0.0000e+00
      0.113     -0.001     8.0252    101.235     42.878  31.067795     2.5111      8.169   315.7643 9.1562e+01     7.5220      0.109      0.157    11.1259   999.6122 0.0000e+00
      0.118      0.019     8.0760     98.394     42.876  31.093251     2.5044      8.161   314.7074 9.0526e+01     7.4194      0.115      0.167    11.1323   999.6116 0.0000e+00
      0.126      0.031     8.0586     95.011     42.834  31.081512     2.4934      8.152   313.5018 8.7657e+01     7.5957      0.121      0.175    11.1532   999.6096 0.0000e+00
      0.140      0.032     7.9633     91.446     42.777  31.052791     2.4742      8.140   312.3723 8.5278e+01     8.0146      0.133      0.195    11.1856   999.6062 0.0000e+00
      0.158      0.023     7.7890     88.184     42.691  30.999829     2.4623      8.126   311.4620 8.4813e+01     8.2892      0.159      0.231    11.2279   999.6019 0.0000e+00
      0.170      0.011     7.5613     85.525     42.605  30.948829     2.4628      8.111   310.9272 8.4933e+01     8.3268      0.172      0.248    11.2612   999.5985 0.0000e+00
      0.169      0.001     7.2897     83.474     42.582  30.943826     2.4620      8.092   310.2934 8.5864e+01     8.0766      0.169      0.245    11.2796   999.5966 0.0000e+00
      0.157     -0.009     6.9975     81.943     42.567  30.939350     2.4619      8.074   309.2193 8.9617e+01     7.6242      0.156      0.227    11.2960   999.5948 0.0000e+00
      0.142     -0.017     6.7375     80.841     42.498  30.894717     2.4624      8.057   308.2651 9.3857e+01     7.4112      0.132      0.191    11.3025   999.5939 0.0000e+00
      0.138     -0.018     6.5341     80.033     42.426  30.848372     2.4581      8.040   307.7043 9.6113e+01     7.4021      0.130      0.189    11.3172   999.5924 0.0000e+00
      0.142     -0.015     6.3772     79.428     42.388  30.823208     2.4882      8.024   307.0851 9.9132e+01     7.4811      0.145      0.210    11.3369   999.5903 0.0000e+00
      0.140     -0.013     6.2604     78.985     42.336  30.780825     2.5496      8.011   306.3712 1.1883e+02     7.6780      0.138      0.200    11.3383   999.5902 0.0000e+00
      0.135     -0.013     6.1808     78.708     42.264  30.716663     2.5851      8.000   306.0422 2.2953e+02     7.8174      0.128      0.187    11.3458   999.5893 0.0000e+00
      0.134     -0.016     6.1191     78.572     42.232  30.681978     2.5874      7.988   306.0321 4.2879e+02     7.8232      0.132      0.191    11.3547   999.5883 0.0000e+00
      0.130     -0.018     6.0738     78.487     42.232  30.678721     2.5076      7.976   305.8195 4.7989e+02     7.7802      0.132      0.193    11.3577   999.5880 0.0000e+00
      0.120     -0.017     6.0399     78.422     42.217  30.677279     2.3580      7.964   305.4496 3.9655e+02     7.7897      0.117      0.169    11.3544   999.5884 0.0000e+00
      0.112     -0.015     6.0208     78.418     42.177  30.664561     2.2693      7.953   305.3455 4.2142e+02     7.8384      0.105      0.153    11.3354   999.5902 0.0000e+00
      0.111     -0.013     6.0170     78.453     42.138  30.651873     2.2671      7.941   305.3355 4.2221e+02     7.8454      0.110      0.160    11.3193   999.5919 0.0000e+00
      0.110     -0.010     6.0120     78.469     42.120  30.650803     2.3577      7.930   305.2420 3.5192e+02     7.7439      0.109      0.158    11.3139   999.5925 0.0000e+00
      0.109     -0.006     6.0026     78.481     42.108  30.651633     2.5062      7.922   305.2482 3.2823e+02     7.5288      0.106      0.154    11.3263   999.5912 0.0000e+00
      0.108     -0.006     5.9996     78.491     42.116  30.661912     2.5807      7.914   305.0665 3.1992e+02     7.3747      0.107      0.155    11.3515   999.5885 0.0000e+00
