* Sea-Bird SBE19plus  Data File:
* FileName = C:\DATA\111020_bvr50_0001.hex
* Software version 2.8.0.119
* Temperature SN = 7809
* Conductivity SN = 7809
* System UpLoad Time = Nov 10 2020 10:49:15
* <ApplicationData>
* <Seaterm232>
* <SoftwareVersion>2.8.0.119</SoftwareVersion>
* <BuildDate>07-Nov-2018</BuildDate>
* </Seaterm232>
* </ApplicationData>
* <InstrumentState>
* <HardwareData DeviceType='SBE19plus' SerialNumber='01907809'>
*
*    <Manufacturer>Sea-Bird Electronics, Inc.</Manufacturer>
*
*    <FirmwareVersion>3.1.8</FirmwareVersion>
*
*    <FirmwareDate>Mar  9 2016 16:22:29</FirmwareDate>
*
*    <CommandSetVersion>1.4</CommandSetVersion>
*
*    <PCBAssembly PCBSerialNum='120721' AssemblyNum='41054J'/>
*
*    <PCBAssembly PCBSerialNum='120715' AssemblyNum='41967A'/>
*
*    <PCBAssembly PCBSerialNum='116699' AssemblyNum='41606'/>
*
*    <PCBAssembly PCBSerialNum='120719' AssemblyNum='41059D'/>
*
*    <MfgDate>28-Apr-2017</MfgDate>
*
*    <InternalSensors>
*
*       <Sensor id='Main Temperature'>
*
*          <type>temperature0</type>
*
*          <SerialNumber>01907809</SerialNumber>
*
*       </Sensor>
*
*       <Sensor id='Main Conductivity'>
*
*          <type>conductivity-0</type>
*
*          <SerialNumber>01907809</SerialNumber>
*
*       </Sensor>
*
*       <Sensor id='Main Pressure'>
*
*          <type>strain-0</type>
*
*          <SerialNumber>10586018</SerialNumber>
*
*       </Sensor>
*
*    </InternalSensors>
*
*    <ExternalSensors>
*
*       <Sensor id='volt 0'>
*
*          <type>pH</type>
*
*          <SerialNumber>27-0363</SerialNumber>
*
*       </Sensor>
*
*       <Sensor id='volt 1'>
*
*          <type>ORP</type>
*
*          <SerialNumber>27-0363</SerialNumber>
*
*       </Sensor>
*
*       <Sensor id='volt 2'>
*
*          <type>OXY</type>
*
*          <SerialNumber>43-0434</SerialNumber>
*
*       </Sensor>
*
*       <Sensor id='volt 3'>
*
*          <type>PAR</type>
*
*          <SerialNumber>1122</SerialNumber>
*
*       </Sensor>
*
*       <Sensor id='volt 4'>
*
*          <type>ECO AFL/FL</type>
*
*          <SerialNumber>FLNTURT-2496</SerialNumber>
*
*       </Sensor>
*
*       <Sensor id='volt 5'>
*
*          <type>ECO-NTU</type>
*
*          <SerialNumber>FLNTURT-2496</SerialNumber>
*
*       </Sensor>
*
*       <Sensor id='serial'>
*
*          <type>not assigned</type>
*
*          <SerialNumber>not assigned</SerialNumber>
*
*       </Sensor>
*
*    </ExternalSensors>
*
* </HardwareData>
* <StatusData DeviceType='SBE19plus' SerialNumber='01907809'>
*
*    <DateTime>2020-11-09T22:48:42</DateTime>
*
*    <LoggingState>not logging</LoggingState>
*
*    <EventSummary numEvents='0'/>
*
*    <Power>
*
*       <vMain>11.5</vMain>
*
*       <vLith>8.3</vLith>
*
*       <iMain>63.1</iMain>
*
*       <iPump>47.3</iPump>
*
*       <iExt01>22.7</iExt01>
*
*       <iExt2345>43.3</iExt2345>
*
*    </Power>
*
*    <MemorySummary>
*
*       <Bytes>70840</Bytes>
*
*       <Samples>3080</Samples>
*
*       <SamplesFree>2857708</SamplesFree>
*
*       <SampleLength>23</SampleLength>
*
*       <Profiles>2</Profiles>
*
*    </MemorySummary>
*
* </StatusData>
* <ConfigurationData DeviceType='SBE19plus' SerialNumber='01907809'>
*
*    <ProfileMode>
*
*       <ScansToAverage>1</ScansToAverage>
*
*       <MinimumCondFreq>5</MinimumCondFreq>
*
*       <PumpDelay>30</PumpDelay>
*
*       <AutoRun>no</AutoRun>
*
*       <IgnoreSwitch>no</IgnoreSwitch>
*
*    </ProfileMode>
*
*    <Battery>
*
*       <Type>alkaline</Type>
*
*       <CutOff>7.5</CutOff>
*
*    </Battery>
*
*    <DataChannels>
*
*       <ExtVolt0>yes</ExtVolt0>
*
*       <ExtVolt1>yes</ExtVolt1>
*
*       <ExtVolt2>yes</ExtVolt2>
*
*       <ExtVolt3>yes</ExtVolt3>
*
*       <ExtVolt4>yes</ExtVolt4>
*
*       <ExtVolt5>yes</ExtVolt5>
*
*       <SBE38>no</SBE38>
*
*       <WETLABS>no</WETLABS>
*
*       <OPTODE>no</OPTODE>
*
*       <SBE63>no</SBE63>
*
*       <SeaFET>no</SeaFET>
*
*       <GTD>no</GTD>
*
*    </DataChannels>
*
*    <EchoCharacters>yes</EchoCharacters>
*
*    <OutputExecutedTag>yes</OutputExecutedTag>
*
*    <OutputFormat>raw HEX</OutputFormat>
*
* </ConfigurationData>
* <CalibrationCoefficients DeviceType='SBE19plus' SerialNumber='01907809'>
*
*    <Calibration format='TEMP1' id='Main Temperature'>
*
*       <SerialNum>01907809</SerialNum>
*
*       <CalDate>17-Feb-20</CalDate>
*
*       <TA0>1.231828e-03</TA0>
*
*       <TA1>2.765479e-04</TA1>
*
*       <TA2>-9.738161e-07</TA2>
*
*       <TA3>1.725813e-07</TA3>
*
*       <TOFFSET>0.000000e+00</TOFFSET>
*
*    </Calibration>
*
*    <Calibration format='WBCOND0' id='Main Conductivity'>
*
*       <SerialNum>01907809</SerialNum>
*
*       <CalDate>17-Feb-20</CalDate>
*
*       <G>-1.004905e+00</G>
*
*       <H>1.264249e-01</H>
*
*       <I>-3.338479e-05</I>
*
*       <J>1.822406e-05</J>
*
*       <CPCOR>-9.570000e-08</CPCOR>
*
*       <CTCOR>3.250000e-06</CTCOR>
*
*       <CSLOPE>1.000000e+00</CSLOPE>
*
*    </Calibration>
*
*    <Calibration format='STRAIN0' id='Main Pressure'>
*
*       <SerialNum>10586018</SerialNum>
*
*       <CalDate>30-Jan-20</CalDate>
*
*       <PA0>-8.839367e-03</PA0>
*
*       <PA1>4.852353e-04</PA1>
*
*       <PA2>-3.463847e-12</PA2>
*
*       <PTCA0>5.254672e+05</PTCA0>
*
*       <PTCA1>5.138564e+00</PTCA1>
*
*       <PTCA2>-2.726934e-01</PTCA2>
*
*       <PTCB0>2.516687e+01</PTCB0>
*
*       <PTCB1>3.750000e-04</PTCB1>
*
*       <PTCB2>0.000000e+00</PTCB2>
*
*       <PTEMPA0>-5.396332e+01</PTEMPA0>
*
*       <PTEMPA1>5.390761e+01</PTEMPA1>
*
*       <PTEMPA2>-2.231787e-02</PTEMPA2>
*
*       <POFFSET>6.460000e-01</POFFSET>
*
*       <PRANGE>1.600000e+02</PRANGE>
*
*    </Calibration>
*
*    <Calibration format='VOLT0' id='Volt 0'>
*
*       <OFFSET>-4.920000e-02</OFFSET>
*
*       <SLOPE>1.248122e+00</SLOPE>
*
*    </Calibration>
*
*    <Calibration format='VOLT0' id='Volt 1'>
*
*       <OFFSET>-4.784000e-02</OFFSET>
*
*       <SLOPE>1.248871e+00</SLOPE>
*
*    </Calibration>
*
*    <Calibration format='VOLT0' id='Volt 2'>
*
*       <OFFSET>-4.864632e-02</OFFSET>
*
*       <SLOPE>1.248714e+00</SLOPE>
*
*    </Calibration>
*
*    <Calibration format='VOLT0' id='Volt 3'>
*
*       <OFFSET>-4.743790e-02</OFFSET>
*
*       <SLOPE>1.248571e+00</SLOPE>
*
*    </Calibration>
*
*    <Calibration format='VOLT0' id='Volt 4'>
*
*       <OFFSET>-4.671263e-02</OFFSET>
*
*       <SLOPE>1.248951e+00</SLOPE>
*
*    </Calibration>
*
*    <Calibration format='VOLT0' id='Volt 5'>
*
*       <OFFSET>-4.871053e-02</OFFSET>
*
*       <SLOPE>1.249136e+00</SLOPE>
*
*    </Calibration>
*
*    <Calibration format='FREQ0' id='external frequency channel'>
*
*       <EXTFREQSF>1.000014e+00</EXTFREQSF>
*
*    </Calibration>
*
* </CalibrationCoefficients>
* <EventCounters DeviceType='SBE19plus' SerialNumber='01907809'>
*
*    <EventSummary numEvents='0'/>
*
* </EventCounters></InstrumentState>
* <Headers>
*
* cast   1 09 Nov 2020 02:27:37 samples 1 to 668, avg = 1, stop = mag switch
*
# nquan = 16
# nvalues = 668                         
# units = specified
# name 0 = depFM: Depth [fresh water, m]
# name 1 = dz/dtM: Descent Rate [m/s]
# name 2 = orp: Oxidation Reduction Potential [mV]
# name 3 = sbeox0Mg/L: Oxygen, SBE 43 [mg/l]
# name 4 = sbeox0PS: Oxygen, SBE 43 [% saturation]
# name 5 = par/sat/log: PAR/Logarithmic, Satlantic
# name 6 = ph: pH
# name 7 = specc: Specific Conductance [uS/cm]
# name 8 = c0uS/cm: Conductivity [uS/cm]
# name 9 = flECO-AFL: Fluorescence, WET Labs ECO-AFL/FL [mg/m^3]
# name 10 = turbWETntu0: Turbidity, WET Labs ECO [NTU]
# name 11 = tv290C: Temperature [ITS-90, deg C]
# name 12 = density00: Density [density, kg/m^3]
# name 13 = prdE: Pressure, Strain Gauge [psi]
# name 14 = prdM: Pressure, Strain Gauge [db]
# name 15 = flag:  0.000e+00
# span 0 =     -0.568,      1.710       
# span 1 =     -0.313,      0.286       
# span 2 = -1240.7451,   914.5048       
# span 3 =     1.7973,    12.7341       
# span 4 =     18.502,    126.483       
# span 5 = 7.6789e+00, 1.1021e+03       
# span 6 =     -0.067,     15.878       
# span 7 =      3.657,    467.682       
# span 8 =   2.939677, 362.242914       
# span 9 =    -1.6989,     8.3201       
# span 10 =    -4.1612,   936.7059      
# span 11 =    13.3738,    20.8346      
# span 12 =   998.0356,   999.4639      
# span 13 =     -0.807,      2.433      
# span 14 =     -0.557,      1.677      
# span 15 = 0.0000e+00, 0.0000e+00      
# interval = seconds: 0.25
# start_time = Nov 09 2020 02:27:37 [Instrument's time stamp, header]
# bad_flag = -9.990e-29
# <Sensors count="9" >
#   <sensor Channel="1" >
#     <!-- Count, Temperature -->
#     <TemperatureSensor SensorID="58" >
#       <SerialNumber>7809</SerialNumber>
#       <CalibrationDate>17-Feb-20</CalibrationDate>
#       <A0>1.23182765e-003</A0>
#       <A1>2.76547921e-004</A1>
#       <A2>-9.73816136e-007</A2>
#       <A3>1.72581310e-007</A3>
#       <Slope>1.00000000</Slope>
#       <Offset>0.0000</Offset>
#     </TemperatureSensor>
#   </sensor>
#   <sensor Channel="2" >
#     <!-- Frequency 0, Conductivity -->
#     <ConductivitySensor SensorID="3" >
#       <SerialNumber>7809</SerialNumber>
#       <CalibrationDate>17-Feb-20</CalibrationDate>
#       <UseG_J>1</UseG_J>
#       <!-- Cell const and series R are applicable only for wide range sensors. -->
#       <SeriesR>0.0000</SeriesR>
#       <CellConst>2000.0000</CellConst>
#       <ConductivityType>0</ConductivityType>
#       <Coefficients equation="0" >
#         <A>0.00000000e+000</A>
#         <B>0.00000000e+000</B>
#         <C>0.00000000e+000</C>
#         <D>0.00000000e+000</D>
#         <M>0.0</M>
#         <CPcor>-9.57000000e-008</CPcor>
#       </Coefficients>
#       <Coefficients equation="1" >
#         <G>-1.00490463e+000</G>
#         <H>1.26424869e-001</H>
#         <I>-3.33847890e-005</I>
#         <J>1.82240562e-005</J>
#         <CPcor>-9.57000000e-008</CPcor>
#         <CTcor>3.2500e-006</CTcor>
#         <!-- WBOTC not applicable unless ConductivityType = 1. -->
#         <WBOTC>0.00000000e+000</WBOTC>
#       </Coefficients>
#       <Slope>1.00000000</Slope>
#       <Offset>0.00000</Offset>
#     </ConductivitySensor>
#   </sensor>
#   <sensor Channel="3" >
#     <!-- Count, Pressure, Strain Gauge -->
#     <PressureSensor SensorID="46" >
#       <SerialNumber>7809</SerialNumber>
#       <CalibrationDate>30-Jan-20</CalibrationDate>
#       <PA0>-8.83936748e-003</PA0>
#       <PA1>4.85235293e-004</PA1>
#       <PA2>-3.46384727e-012</PA2>
#       <PTEMPA0>-5.39633232e+001</PTEMPA0>
#       <PTEMPA1>5.39076104e+001</PTEMPA1>
#       <PTEMPA2>-2.23178720e-002</PTEMPA2>
#       <PTCA0>5.25467230e+005</PTCA0>
#       <PTCA1>5.13856356e+000</PTCA1>
#       <PTCA2>-2.72693365e-001</PTCA2>
#       <PTCB0>2.51668750e+001</PTCB0>
#       <PTCB1>3.75000000e-004</PTCB1>
#       <PTCB2>0.00000000e+000</PTCB2>
#       <Offset>0.000000</Offset>
#     </PressureSensor>
#   </sensor>
#   <sensor Channel="4" >
#     <!-- A/D voltage 0, Oxygen, SBE 43 -->
#     <OxygenSensor SensorID="38" >
#       <SerialNumber>0434</SerialNumber>
#       <CalibrationDate>17-Mar-20</CalibrationDate>
#       <Use2007Equation>1</Use2007Equation>
#       <CalibrationCoefficients equation="0" >
#         <!-- Coefficients for Owens-Millard equation. -->
#         <Boc>0.0000</Boc>
#         <Soc>0.0000e+000</Soc>
#         <offset>0.0000</offset>
#         <Pcor>0.00e+000</Pcor>
#         <Tcor>0.0000</Tcor>
#         <Tau>0.0</Tau>
#       </CalibrationCoefficients>
#       <CalibrationCoefficients equation="1" >
#         <!-- Coefficients for Sea-Bird equation - SBE calibration in 2007 and later. -->
#         <Soc>4.3425e-001</Soc>
#         <offset>-0.6091</offset>
#         <A>-4.2837e-003</A>
#         <B> 1.6743e-004</B>
#         <C>-2.2978e-006</C>
#         <D0> 2.5826e+000</D0>
#         <D1> 1.92634e-004</D1>
#         <D2>-4.64803e-002</D2>
#         <E> 3.6000e-002</E>
#         <Tau20> 1.3000</Tau20>
#         <H1>-3.3000e-002</H1>
#         <H2> 5.0000e+003</H2>
#         <H3> 1.4500e+003</H3>
#       </CalibrationCoefficients>
#     </OxygenSensor>
#   </sensor>
#   <sensor Channel="5" >
#     <!-- A/D voltage 1, PAR/Logarithmic, Satlantic -->
#     <PARLog_SatlanticSensor SensorID="76" >
#       <SerialNumber>1122</SerialNumber>
#       <CalibrationDate>08-May-2019</CalibrationDate>
#       <a0>9.7456e-001</a0>
#       <a1>8.1640e-001</a1>
#       <Im>1.3589e+000</Im>
#       <Multiplier>1.0000e+000</Multiplier>
#     </PARLog_SatlanticSensor>
#   </sensor>
#   <sensor Channel="6" >
#     <!-- A/D voltage 2, pH -->
#     <pH_Sensor SensorID="43" >
#       <SerialNumber>0363</SerialNumber>
#       <CalibrationDate>24-Feb-20</CalibrationDate>
#       <Slope>4.6470</Slope>
#       <Offset>2.5043</Offset>
#     </pH_Sensor>
#   </sensor>
#   <sensor Channel="7" >
#     <!-- A/D voltage 3, Oxidation Reduction Potential -->
#     <OxidationReductionPotentialSensor SensorID="41" >
#       <SerialNumber>0363</SerialNumber>
#       <CalibrationDate>24-Feb-20</CalibrationDate>
#       <B>2.499480</B>
#       <M>-0.496195</M>
#       <Offset>0.0</Offset>
#     </OxidationReductionPotentialSensor>
#   </sensor>
#   <sensor Channel="8" >
#     <!-- A/D voltage 4, Fluorometer, WET Labs ECO-AFL/FL -->
#     <FluoroWetlabECO_AFL_FL_Sensor SensorID="20" >
#       <SerialNumber>FLNTURT-2496</SerialNumber>
#       <CalibrationDate>31-Jan-2020</CalibrationDate>
#       <ScaleFactor>5.50000000e+001</ScaleFactor>
#       <!-- Dark output -->
#       <Vblank>0.0700</Vblank>
#     </FluoroWetlabECO_AFL_FL_Sensor>
#   </sensor>
#   <sensor Channel="9" >
#     <!-- A/D voltage 5, Turbidity Meter, WET Labs, ECO-NTU -->
#     <TurbidityMeter SensorID="67" >
#       <SerialNumber>FLNTURT-2496</SerialNumber>
#       <CalibrationDate>31-Jan-20</CalibrationDate>
#       <ScaleFactor>198.000000</ScaleFactor>
#       <!-- Dark output -->
#       <DarkVoltage>0.070000</DarkVoltage>
#     </TurbidityMeter>
#   </sensor>
# </Sensors>
# datcnv_date = Nov 10 2020 10:51:27, 7.26.7.129 [datcnv_vars = 15]
# datcnv_in = C:\DATA\111020_bvr50_0001.hex C:\DATA\SBE19plusV2_7809.xmlcon
# datcnv_skipover = 0
# datcnv_ox_hysteresis_correction = yes
# datcnv_ox_tau_correction = yes
# filter_date = Nov 10 2020 10:52:20, 7.26.7.129
# filter_in = C:\DATA\111020_bvr50_0001.cnv
# filter_low_pass_tc_A = 0.030
# filter_low_pass_tc_B = 0.150
# filter_low_pass_A_vars = sbeox0Mg/L tv290C density00 prdE prdM
# filter_low_pass_B_vars = depFM dz/dtM orp sbeox0PS par/sat/log ph specc c0uS/cm flECO-AFL turbWETntu0
# alignctd_date = Nov 10 2020 10:52:53, 7.26.7.129
# alignctd_in = C:\DATA\111020_bvr50_0001.cnv
# alignctd_adv = dz/dtM 1.000, orp 1.000, sbeox0PS 1.000, ph 1.000, specc 1.000, c0uS/cm 1.000, flECO-AFL 1.000, turbWETntu0 1.000                                                                                                   
# file_type = ascii
*END*
     -0.568      0.017   914.5048     8.4763     94.564 1.2030e+02     -0.067      8.356   7.584315    -1.0148    -0.3215    20.7263   998.0580     -0.807     -0.557 0.0000e+00
     -0.567      0.047   624.2494     8.4784     94.602 1.5368e+02      4.550     21.654  19.434044    -1.0091    -0.3186    20.7364   998.0557     -0.807     -0.556 0.0000e+00
     -0.566      0.090   413.6232     8.4690     94.657 2.0649e+02      9.161     33.032  29.145165    -0.9270    -0.2261    20.7686   998.0491     -0.807     -0.556 0.0000e+00
     -0.555      0.135   385.5484     8.4624     94.688 2.5556e+02     12.026     37.735  32.615193    -0.2313     0.3155    20.7893   998.0442     -0.807     -0.556 0.0000e+00
     -0.513      0.175   379.7010     8.4568     94.723 2.9887e+02     13.701     39.193  33.223956     1.0127     1.2869    20.8346   998.0356     -0.754     -0.520 0.0000e+00
     -0.435      0.206   369.5087     8.5273     94.831 3.3575e+02     14.643     39.872  33.268985     1.6870     1.8364    20.4225   998.1287     -0.618     -0.426 0.0000e+00
     -0.353      0.231   353.7743     8.7332     95.027 3.6596e+02     15.153     40.348  33.285868     1.8184     1.9818    19.2760   998.3672     -0.487     -0.337 0.0000e+00
     -0.291      0.250   343.0375     8.9302     95.318 3.9394e+02     15.435     40.665  33.300715     2.6208     2.5288    18.1816   998.5798     -0.403     -0.279 0.0000e+00
     -0.245      0.262   338.8070     9.0854     95.679 4.0562e+02     15.596     40.868  33.321305     4.0542     3.4385    17.3398   998.7328     -0.350     -0.241 0.0000e+00
     -0.195      0.271   335.5771     9.2315     96.261 3.8846e+02     15.691     41.068  33.407740     4.8252     3.9170    16.6425   998.8547     -0.291     -0.201 0.0000e+00
     -0.125      0.281   331.5178     9.3356     97.241 3.5775e+02     15.749     41.337  33.584288     4.9244     3.9193    16.1899   998.9305     -0.186     -0.128 0.0000e+00
     -0.039      0.286   328.4444     9.4267     98.388 3.0790e+02     15.782     41.583  33.742695     5.2917     3.9126    15.8991   998.9785     -0.058     -0.040 0.0000e+00
      0.055      0.281   327.3259     9.4925     99.403 2.3147e+02     15.800     41.695  33.800129     5.9563     3.9390    15.7324   999.0056      0.080      0.055 0.0000e+00
      0.141      0.259   327.5447     9.5481    100.104 1.6694e+02     15.810     41.718  33.834505     6.3132     3.9300    15.6535   999.0188      0.214      0.148 0.0000e+00
      0.207      0.220   328.6809     9.6705    100.357 1.3200e+02     15.815     41.707  33.904539     6.3456     3.9402    15.6231   999.0239      0.304      0.210 0.0000e+00
      0.252      0.173   330.4802     9.8053    100.214 1.2000e+02     15.815     41.645  33.949025     6.4617     3.9942    15.5731   999.0321      0.362      0.250 0.0000e+00
      0.284      0.128   330.9735     9.9225     99.837 1.1899e+02     15.816     41.466  33.864876     6.6773     4.0337    15.5050   999.0430      0.410      0.282 0.0000e+00
      0.304      0.088   328.4507    10.0041     99.261 1.2296e+02     15.817     41.188  33.648613     6.7975     4.0405    15.5109   999.0421      0.437      0.301 0.0000e+00
      0.317      0.058   325.6175     9.9910     97.557 1.3062e+02     15.819     40.968  33.428140     6.8092     4.0083    15.6380   999.0221      0.452      0.312 0.0000e+00
      0.327      0.036   324.2494     9.9518     94.076 1.3243e+02     15.823     40.899  33.293014     6.8375     3.9533    15.7763   999.0002      0.467      0.321 0.0000e+00
      0.333      0.021   323.1805     9.8761     90.211 1.3279e+02     15.827     40.928  33.220281     6.9013     3.8897    15.8507   998.9883      0.477      0.329 0.0000e+00
      0.335      0.011   322.0717     9.8569     87.891 1.3328e+02     15.831     40.998  33.183120     6.9422     3.8219    15.8674   998.9854      0.478      0.330 0.0000e+00
      0.334      0.006   321.1684     9.7643     88.307 1.3803e+02     15.834     41.070  33.160847     6.9410     3.7529    15.8118   998.9943      0.476      0.328 0.0000e+00
      0.333      0.003   320.5185     9.3497     91.212 1.5330e+02     15.836     41.123  33.141239     6.9250     3.7073    15.7030   999.0116      0.474      0.327 0.0000e+00
      0.333      0.002   319.9781     8.9270     95.189 1.5485e+02     15.838     41.176  33.136313     6.9200     3.7860    15.5792   999.0311      0.472      0.325 0.0000e+00
