* Sea-Bird SBE19plus  Data File:
* FileName = C:\DATA\111318_fcr_50_0001.hex
* Software version 2.6.3.104 SB_Terminal.dll
* Temperature SN = 7809
* Conductivity SN = 7809
* System UpLoad Time = Nov 13 2018 16:58:01
* <ApplicationData>
* <Seaterm232>
* <SoftwareVersion>2.6.3.104</SoftwareVersion>
* <BuildDate>30-Jun-2017</BuildDate>
* </Seaterm232>
* </ApplicationData>
* cast   1 13 Nov 2018 19:24:08 samples 1 to 1199, avg = 1, stop = mag switch
# nquan = 15
# nvalues = 1059                        
# units = specified
# name 0 = depFM: Depth [fresh water, m]
# name 1 = dz/dtM: Descent Rate [m/s]
# name 2 = sbeox0Mg/L: Oxygen, SBE 43 [mg/l]
# name 3 = sbeox0PS: Oxygen, SBE 43 [% saturation]
# name 4 = specc: Specific Conductance [uS/cm]
# name 5 = c0uS/cm: Conductivity [uS/cm]
# name 6 = flECO-AFL: Fluorescence, WET Labs ECO-AFL/FL [mg/m^3]
# name 7 = ph: pH
# name 8 = orp: Oxidation Reduction Potential [mV]
# name 9 = par/sat/log: PAR/Logarithmic, Satlantic
# name 10 = turbWETntu0: Turbidity, WET Labs ECO [NTU]
# name 11 = prdM: Pressure, Strain Gauge [db]
# name 12 = prdE: Pressure, Strain Gauge [psi]
# name 13 = tv290C: Temperature [ITS-90, deg C]
# name 14 = flag:  0.000e+00
# span 0 =     -0.617,      9.699       
# span 1 =     -0.143,      0.241       
# span 2 =     6.3032,    11.4196       
# span 3 =     55.104,     99.703       
# span 4 =      1.030,    269.352       
# span 5 =   0.684644, 187.212860       
# span 6 =    -0.2318,     2.0953       
# span 7 =      6.132,      8.329       
# span 8 =   275.8281,  1116.2997       
# span 9 = 1.2565e-01, 1.6661e+02       
# span 10 =    -0.2968,    57.3860      
# span 11 =     -0.606,      9.512      
# span 12 =     -0.879,     13.796      
# span 13 =     8.2376,     9.7837      
# span 14 = 0.0000e+00, 0.0000e+00      
# interval = seconds: 0.25
# start_time = Nov 13 2018 19:24:08 [Instrument's time stamp, header]
# bad_flag = -9.990e-29
# <Sensors count="9" >
#   <sensor Channel="1" >
#     <!-- Count, Temperature -->
#     <TemperatureSensor SensorID="58" >
#       <SerialNumber>7809</SerialNumber>
#       <CalibrationDate>09-Mar-18</CalibrationDate>
#       <A0>1.21093245e-003</A0>
#       <A1>2.84356597e-004</A1>
#       <A2>-1.94507398e-006</A2>
#       <A3>2.12806664e-007</A3>
#       <Slope>1.00000000</Slope>
#       <Offset>0.0000</Offset>
#     </TemperatureSensor>
#   </sensor>
#   <sensor Channel="2" >
#     <!-- Frequency 0, Conductivity -->
#     <ConductivitySensor SensorID="3" >
#       <SerialNumber>7809</SerialNumber>
#       <CalibrationDate>09-Mar-18</CalibrationDate>
#       <UseG_J>1</UseG_J>
#       <!-- Cell const and series R are applicable only for wide range sensors. -->
#       <SeriesR>0.0000</SeriesR>
#       <CellConst>2000.0000</CellConst>
#       <ConductivityType>0</ConductivityType>
#       <Coefficients equation="0" >
#         <A>0.00000000e+000</A>
#         <B>0.00000000e+000</B>
#         <C>0.00000000e+000</C>
#         <D>0.00000000e+000</D>
#         <M>0.0</M>
#         <CPcor>-9.57000000e-008</CPcor>
#       </Coefficients>
#       <Coefficients equation="1" >
#         <G>-1.00672082e+000</G>
#         <H>1.26906489e-001</H>
#         <I>-1.40584351e-004</I>
#         <J>2.47837121e-005</J>
#         <CPcor>-9.57000000e-008</CPcor>
#         <CTcor>3.2500e-006</CTcor>
#         <!-- WBOTC not applicable unless ConductivityType = 1. -->
#         <WBOTC>0.00000000e+000</WBOTC>
#       </Coefficients>
#       <Slope>1.00000000</Slope>
#       <Offset>0.00000</Offset>
#     </ConductivitySensor>
#   </sensor>
#   <sensor Channel="3" >
#     <!-- Count, Pressure, Strain Gauge -->
#     <PressureSensor SensorID="46" >
#       <SerialNumber>7809</SerialNumber>
#       <CalibrationDate>07-Mar-18</CalibrationDate>
#       <PA0>-4.08176359e-002</PA0>
#       <PA1>4.85188419e-004</PA1>
#       <PA2>-3.51168169e-012</PA2>
#       <PTEMPA0>-5.37806900e+001</PTEMPA0>
#       <PTEMPA1>5.36620721e+001</PTEMPA1>
#       <PTEMPA2>4.87214332e-002</PTEMPA2>
#       <PTCA0>5.25213435e+005</PTCA0>
#       <PTCA1>1.79532409e+000</PTCA1>
#       <PTCA2>-2.84353509e-001</PTCA2>
#       <PTCB0>2.51668750e+001</PTCB0>
#       <PTCB1>3.75000000e-004</PTCB1>
#       <PTCB2>0.00000000e+000</PTCB2>
#       <Offset>0.000000</Offset>
#     </PressureSensor>
#   </sensor>
#   <sensor Channel="4" >
#     <!-- A/D voltage 0, pH -->
#     <pH_Sensor SensorID="43" >
#       <SerialNumber>0363</SerialNumber>
#       <CalibrationDate>16-Mar-18</CalibrationDate>
#       <Slope>4.6194</Slope>
#       <Offset>2.5947</Offset>
#     </pH_Sensor>
#   </sensor>
#   <sensor Channel="5" >
#     <!-- A/D voltage 1, Oxidation Reduction Potential -->
#     <OxidationReductionPotentialSensor SensorID="41" >
#       <SerialNumber>0363</SerialNumber>
#       <CalibrationDate>16-Mar-18</CalibrationDate>
#       <B>2.499480</B>
#       <M>-0.496195</M>
#       <Offset>0.0</Offset>
#     </OxidationReductionPotentialSensor>
#   </sensor>
#   <sensor Channel="6" >
#     <!-- A/D voltage 2, Oxygen, SBE 43 -->
#     <OxygenSensor SensorID="38" >
#       <SerialNumber>0434</SerialNumber>
#       <CalibrationDate>13-Mar-18</CalibrationDate>
#       <Use2007Equation>1</Use2007Equation>
#       <CalibrationCoefficients equation="0" >
#         <!-- Coefficients for Owens-Millard equation. -->
#         <Boc>0.0000</Boc>
#         <Soc>0.0000e+000</Soc>
#         <offset>0.0000</offset>
#         <Pcor>0.00e+000</Pcor>
#         <Tcor>0.0000</Tcor>
#         <Tau>0.0</Tau>
#       </CalibrationCoefficients>
#       <CalibrationCoefficients equation="1" >
#         <!-- Coefficients for Sea-Bird equation - SBE calibration in 2007 and later. -->
#         <Soc>4.5718e-001</Soc>
#         <offset>-0.6113</offset>
#         <A>-4.0649e-003</A>
#         <B> 2.0945e-004</B>
#         <C>-3.3182e-006</C>
#         <D0> 2.5826e+000</D0>
#         <D1> 1.92634e-004</D1>
#         <D2>-4.64803e-002</D2>
#         <E> 3.6000e-002</E>
#         <Tau20> 1.2200</Tau20>
#         <H1>-3.3000e-002</H1>
#         <H2> 5.0000e+003</H2>
#         <H3> 1.4500e+003</H3>
#       </CalibrationCoefficients>
#     </OxygenSensor>
#   </sensor>
#   <sensor Channel="7" >
#     <!-- A/D voltage 3, PAR/Logarithmic, Satlantic -->
#     <PARLog_SatlanticSensor SensorID="76" >
#       <SerialNumber>1122</SerialNumber>
#       <CalibrationDate>22-Jun-2017</CalibrationDate>
#       <a0>9.6090e-001</a0>
#       <a1>8.0780e-001</a1>
#       <Im>1.3589e+000</Im>
#       <Multiplier>1.0000e+000</Multiplier>
#     </PARLog_SatlanticSensor>
#   </sensor>
#   <sensor Channel="8" >
#     <!-- A/D voltage 4, Fluorometer, WET Labs ECO-AFL/FL -->
#     <FluoroWetlabECO_AFL_FL_Sensor SensorID="20" >
#       <SerialNumber>FLNTURT-2496</SerialNumber>
#       <CalibrationDate>25-Jan-2017</CalibrationDate>
#       <ScaleFactor>5.30000000e+001</ScaleFactor>
#       <!-- Dark output -->
#       <Vblank>0.0560</Vblank>
#     </FluoroWetlabECO_AFL_FL_Sensor>
#   </sensor>
#   <sensor Channel="9" >
#     <!-- A/D voltage 5, Turbidity Meter, WET Labs, ECO-NTU -->
#     <TurbidityMeter SensorID="67" >
#       <SerialNumber>FLNTURT-2496</SerialNumber>
#       <CalibrationDate>25-Jan-2017</CalibrationDate>
#       <ScaleFactor>176.000000</ScaleFactor>
#       <!-- Dark output -->
#       <DarkVoltage>0.072000</DarkVoltage>
#     </TurbidityMeter>
#   </sensor>
# </Sensors>
# datcnv_date = Nov 13 2018 16:58:43, 7.26.7.114 [datcnv_vars = 14]
# datcnv_in = C:\DATA\111318_fcr_50.hex C:\DATA\SBE19plusV2_7809.xmlcon
# datcnv_skipover = 0
# datcnv_ox_hysteresis_correction = yes
# datcnv_ox_tau_correction = yes
# filter_date = Nov 13 2018 16:59:02, 7.26.7.114
# filter_in = C:\DATA\111318_fcr_50.cnv
# filter_low_pass_tc_A = 0.030
# filter_low_pass_tc_B = 0.150
# filter_low_pass_A_vars = prdM prdE tv290C
# filter_low_pass_B_vars = depFM dz/dtM sbeox0Mg/L sbeox0PS specc c0uS/cm flECO-AFL ph orp par/sat/log turbWETntu0
# alignctd_date = Nov 13 2018 16:59:18, 7.26.7.114
# alignctd_in = C:\DATA\111318_fcr_50.cnv
# alignctd_adv = dz/dtM 1.000, sbeox0Mg/L 1.000, sbeox0PS 1.000, specc 1.000, c0uS/cm 1.000, flECO-AFL 1.000, ph 1.000, orp 1.000, turbWETntu0 1.000                                                                                 
# file_type = ascii
*END*
     -0.617 8.6275e-20    11.4194     97.001      1.030   0.684644    -0.2175      6.164   811.6447 1.6661e+02    -0.0723     -0.605     -0.877     8.2376 0.0000e+00
     -0.617 7.8435e-21    11.4193     97.004      1.050   0.698450    -0.2251      6.166   835.1901 1.6112e+02    -0.0347     -0.605     -0.878     8.2389 0.0000e+00
     -0.617 7.1334e-22    11.4196     97.014      1.079   0.717507    -0.2201      6.177   864.7154 1.5563e+02     0.0173     -0.605     -0.878     8.2411 0.0000e+00
     -0.617 6.8000e-23    11.4196     97.022      1.090   0.724822    -0.2131      6.180   882.1227 1.5577e+02     0.0066     -0.605     -0.878     8.2431 0.0000e+00
     -0.617 4.0866e-23    11.4186     97.020      1.278   0.850305    -0.2228      6.155   875.2157 1.5905e+02    -0.0419     -0.605     -0.878     8.2446 0.0000e+00
     -0.617 3.8524e-22    11.4167     97.013      1.453   0.966395    -0.2278      6.133   875.0731 1.5973e+02    -0.0494     -0.606     -0.879     8.2464 0.0000e+00
     -0.617 4.2318e-21    11.4146     97.005      1.388   0.923553    -0.2180      6.132   890.9812 1.6044e+02    -0.0236     -0.605     -0.878     8.2493 0.0000e+00
     -0.617 4.6550e-20    11.4131     97.003      1.452   0.966461    -0.2245      6.141   901.4175 1.6177e+02    -0.0046     -0.605     -0.877     8.2525 0.0000e+00
     -0.617 5.1205e-19    11.4125     97.008      1.564   1.041291    -0.2318      6.163   913.6691 1.5746e+02    -0.0025     -0.605     -0.878     8.2557 0.0000e+00
     -0.617 5.6325e-18    11.4120     97.013      1.508   1.003912    -0.2233      6.186   936.4692 1.5024e+02    -0.0282     -0.605     -0.877     8.2592 0.0000e+00
     -0.617 6.1957e-17    11.4103     97.004      1.345   0.895022    -0.2235      6.191   956.8312 1.4502e+02    -0.0715     -0.605     -0.878     8.2635 0.0000e+00
     -0.617 6.8153e-16    11.4068     96.977      1.206   0.802769    -0.2242      6.183   970.7508 1.4127e+02    -0.1304     -0.605     -0.877     8.2685 0.0000e+00
     -0.617 7.4969e-15    11.4038     96.956      1.261   0.839720    -0.2137      6.178   981.0454 1.3922e+02    -0.1904     -0.605     -0.877     8.2730 0.0000e+00
     -0.616 8.2465e-14    11.4041     96.961      1.348   0.897892    -0.2071      6.177   984.5084 1.3814e+02    -0.2164     -0.604     -0.877     8.2763 0.0000e+00
     -0.616 9.0712e-13    11.4070     96.989      1.405   0.935387    -0.2095      6.171   985.9487 1.3744e+02    -0.2321     -0.604     -0.877     8.2789 0.0000e+00
     -0.616 9.9783e-12    11.4095     97.014      1.371   0.912569    -0.2145      6.163   980.8220 1.3757e+02    -0.2577     -0.604     -0.877     8.2802 0.0000e+00
     -0.617 1.0976e-10    11.4105     97.027      1.220   0.812246    -0.2210      6.163   979.9958 1.3663e+02    -0.2819     -0.605     -0.877     8.2813 0.0000e+00
     -0.617 1.2074e-09    11.4112     97.035      1.202   0.800455    -0.2247      6.166  1011.0628 1.2985e+02    -0.2809     -0.605     -0.877     8.2830 0.0000e+00
     -0.617 1.3281e-08    11.4114     97.038      1.252   0.833423    -0.2224      6.167  1043.6983 1.1390e+02    -0.2752     -0.605     -0.877     8.2841 0.0000e+00
     -0.616 1.4609e-07    11.4124     97.051      1.247   0.830373    -0.2205      6.167  1057.5335 9.4348e+01    -0.2747     -0.604     -0.877     8.2860 0.0000e+00
     -0.616      0.000    11.4130     97.062      1.242   0.826987    -0.2200      6.166  1068.1277 8.0423e+01    -0.2437     -0.604     -0.876     8.2877 0.0000e+00
     -0.616      0.000    11.4105     97.046      1.190   0.792478    -0.2258      6.168  1078.4397 7.3231e+01    -0.2362     -0.604     -0.877     8.2891 0.0000e+00
     -0.616      0.000    11.4067     97.020      1.286   0.857034    -0.2261      6.180  1091.9593 6.9868e+01    -0.2759     -0.604     -0.876     8.2890 0.0000e+00
     -0.616      0.002    11.4019     96.994      2.790   1.861192    -0.2143      6.267  1116.2997 6.9251e+01    -0.2968     -0.604     -0.876     8.2912 0.0000e+00
     -0.616      0.014    11.3894     96.974     11.854   7.923630    -0.2028      6.544   966.8035 7.1073e+01    -0.2750     -0.604     -0.877     8.2922 0.0000e+00
     -0.616      0.044    11.3445     96.953     27.763  18.640586    -0.1973      7.014   602.9654 7.6000e+01    -0.2565     -0.604     -0.877     8.2972 0.0000e+00
     -0.615      0.092    11.2605     96.918     37.756  25.531926    -0.2027      7.535   380.5444 8.2717e+01    -0.2567     -0.603     -0.875     8.2961 0.0000e+00
     -0.608      0.146    11.1739     96.890     39.528  26.957002    -0.1851      7.954   349.9573 8.8958e+01    -0.1242     -0.605     -0.879     8.3049 0.0000e+00
     -0.571      0.193    11.1090     96.875     39.296  26.982427     0.0989      8.201   340.9469 9.5914e+01     1.3149     -0.581     -0.844     8.2974 0.0000e+00
     -0.488      0.226    11.0654     96.871     38.926  26.855482     0.6201      8.307   335.7004 1.0387e+02     3.9292     -0.485     -0.704     8.4188 0.0000e+00
     -0.387      0.241    11.0427     96.903     38.760  26.819207     0.8963      8.329   330.9178 1.1032e+02     5.3315     -0.368     -0.534     8.7933 0.0000e+00
     -0.307      0.234    11.0375     96.983     38.759  26.861392     0.9206      8.299   326.3124 1.1409e+02     5.3909     -0.290     -0.418     9.1286 0.0000e+00
     -0.256      0.202    11.0435     97.099     38.724  26.857600     1.0421      8.247   322.2628 1.1634e+02     5.2267     -0.246     -0.356     9.3521 0.0000e+00
     -0.220      0.153    11.0550     97.236     38.585  26.773378     1.2623      8.197   319.0369 1.1825e+02     4.9641     -0.217     -0.314     9.5190 0.0000e+00
     -0.188      0.105    11.0695     97.393     38.420  26.668542     1.3775      8.156   316.3896 1.1965e+02     4.8097     -0.181     -0.262     9.6077 0.0000e+00
     -0.167      0.069    11.0890     97.590     38.318  26.605989     1.3885      8.120   314.0873 1.2025e+02     4.7342     -0.156     -0.228     9.6594 0.0000e+00
     -0.160      0.046    11.1144     97.831     38.285  26.588539     1.4040      8.080   312.2793 1.2030e+02     4.0814     -0.155     -0.226     9.6790 0.0000e+00
     -0.158      0.029    11.1417     98.078     38.275  26.584559     1.4355      8.032   310.5323 1.2012e+02     2.8981     -0.156     -0.227     9.6914 0.0000e+00
     -0.156      0.018    11.1687     98.316     38.237  26.557865     1.4579      7.987   308.6238 1.1999e+02     2.2373     -0.154     -0.224     9.7048 0.0000e+00
     -0.152      0.013    11.1974     98.563     38.184  26.519766     1.4542      7.954   307.0148 1.1991e+02     2.1043     -0.149     -0.217     9.7171 0.0000e+00
     -0.149      0.012    11.2345     98.882     38.166  26.504883     1.4364      7.931   306.1340 1.1988e+02     2.0524     -0.145     -0.210     9.7247 0.0000e+00
     -0.146      0.012    11.2850     99.320     38.170  26.504910     1.4176      7.911   305.5458 1.1983e+02     2.0982     -0.144     -0.208     9.7271 0.0000e+00
     -0.143      0.012    11.3294     99.700     38.197  26.520084     1.4011      7.893   304.7203 1.1969e+02     2.1394     -0.140     -0.205     9.7265 0.0000e+00
     -0.139      0.012    11.3312     99.703     38.262  26.561350     1.3846      7.876   303.8974 1.1957e+02     2.1229     -0.135     -0.198     9.7239 0.0000e+00
     -0.137      0.011    11.2605     99.070     38.356  26.622882     1.3740      7.860   302.9102 1.1926e+02     2.0826     -0.133     -0.193     9.7204 0.0000e+00
     -0.134      0.010    11.0998     97.652     38.458  26.692586     1.3731      7.845   301.7316 1.1887e+02     2.0788     -0.132     -0.192     9.7174 0.0000e+00
     -0.131      0.008    10.8493     95.452     38.566  26.769168     1.3737      7.832   300.3157 1.1847e+02     2.1376     -0.128     -0.186     9.7139 0.0000e+00
     -0.128      0.007    10.5256     92.607     38.681  26.850365     1.3727      7.822   298.5244 1.1796e+02     2.1531     -0.125     -0.181     9.7077 0.0000e+00
     -0.127      0.005    10.1485     89.290     38.770  26.912366     1.3700      7.814   296.9373 1.1738e+02     2.1135     -0.124     -0.180     9.7017 0.0000e+00
     -0.127      0.004     9.7507     85.787     38.823  26.947341     1.3685      7.806   295.7525 1.1681e+02     2.1161     -0.124     -0.180     9.7002 0.0000e+00
     -0.126      0.004     9.3813     82.532     38.838  26.955758     1.3731      7.796   294.7823 1.1634e+02     2.1236     -0.124     -0.180     9.7024 0.0000e+00
     -0.125      0.004     9.0749     79.834     38.832  26.950641     1.3795      7.783   293.8966 1.1603e+02     2.1121     -0.123     -0.178     9.7050 0.0000e+00
     -0.124      0.005     8.8391     77.761     38.829  26.948971     1.3824      7.769   293.1309 1.1603e+02     2.0994     -0.122     -0.177     9.7055 0.0000e+00
     -0.123      0.006     8.6663     76.242     38.809  26.935564     1.3805      7.754   292.4931 1.1612e+02     2.0920     -0.121     -0.175     9.7036 0.0000e+00
     -0.122      0.006     8.5374     75.108     38.780  26.915534     1.3744      7.739   291.8643 1.1614e+02     2.1147     -0.119     -0.173     9.6998 0.0000e+00
     -0.120      0.006     8.4365     74.220     38.754  26.897282     1.3729      7.725   291.4649 1.1631e+02     2.1299     -0.118     -0.171     9.6981 0.0000e+00
     -0.117      0.006     8.3570     73.519     38.766  26.905374     1.3808      7.712   291.2774 1.1647e+02     2.1233     -0.115     -0.167     9.6994 0.0000e+00
     -0.115      0.006     8.2873     72.906     38.830  26.949876     1.3780      7.702   290.9736 1.1655e+02     2.0958     -0.113     -0.164     9.7008 0.0000e+00
     -0.115      0.005     8.2190     72.307     38.888  26.990870     1.3761      7.692   290.8031 1.1660e+02     2.0426     -0.112     -0.163     9.7011 0.0000e+00
     -0.114      0.004     8.1508     71.711     38.928  27.020036     1.3949      7.683   290.7656 1.1660e+02     2.0283     -0.111     -0.160     9.7004 0.0000e+00
     -0.112      0.003     8.0853     71.140     38.966  27.048541     1.4026      7.674   290.3480 1.1658e+02     2.0756     -0.110     -0.159     9.6994 0.0000e+00
     -0.111      0.003     8.0267     70.629     39.010  27.081531     1.3862      7.665   289.6259 1.1649e+02     2.1261     -0.109     -0.159     9.6995 0.0000e+00
     -0.110      0.002     7.9772     70.198     39.036  27.101430     1.3718      7.653   288.9171 1.1638e+02     2.1197     -0.108     -0.157     9.7005 0.0000e+00
     -0.110      0.002     7.9431     69.899     39.030  27.098645     1.3755      7.640   288.5746 1.1640e+02     2.0900     -0.108     -0.157     9.7028 0.0000e+00
     -0.110      0.002     7.9303     69.788     39.047  27.111355     1.3846      7.625   288.5828 1.1643e+02     2.1031     -0.108     -0.156     9.7060 0.0000e+00
     -0.109      0.003     7.9358     69.838     39.071  27.128115     1.3808      7.610   288.5001 1.1646e+02     2.1252     -0.107     -0.156     9.7090 0.0000e+00
     -0.109      0.003     7.9543     70.001     39.046  27.110788     1.3574      7.594   288.1764 1.1656e+02     2.1127     -0.107     -0.156     9.7114 0.0000e+00
     -0.108      0.003     7.9823     70.249     39.019  27.092350     1.3314      7.576   287.5084 1.1666e+02     2.1047     -0.106     -0.154     9.7131 0.0000e+00
