* Sea-Bird SBE19plus  Data File:
* FileName = C:\DATA\111918_fcr50_0001.hex
* Software version 2.6.3.104 SB_Terminal.dll
* Temperature SN = 7809
* Conductivity SN = 7809
* System UpLoad Time = Nov 19 2018 16:24:22
* <ApplicationData>
* <Seaterm232>
* <SoftwareVersion>2.6.3.104</SoftwareVersion>
* <BuildDate>30-Jun-2017</BuildDate>
* </Seaterm232>
* </ApplicationData>
* cast   1 19 Nov 2018 15:47:25 samples 1 to 1174, avg = 1, stop = mag switch
# nquan = 15
# nvalues = 1046                        
# units = specified
# name 0 = depFM: Depth [fresh water, m]
# name 1 = dz/dtM: Descent Rate [m/s]
# name 2 = sbeox0Mg/L: Oxygen, SBE 43 [mg/l]
# name 3 = sbeox0PS: Oxygen, SBE 43 [% saturation]
# name 4 = specc: Specific Conductance [uS/cm]
# name 5 = c0uS/cm: Conductivity [uS/cm]
# name 6 = flECO-AFL: Fluorescence, WET Labs ECO-AFL/FL [mg/m^3]
# name 7 = ph: pH
# name 8 = orp: Oxidation Reduction Potential [mV]
# name 9 = par/sat/log: PAR/Logarithmic, Satlantic
# name 10 = turbWETntu0: Turbidity, WET Labs ECO [NTU]
# name 11 = prdM: Pressure, Strain Gauge [db]
# name 12 = prdE: Pressure, Strain Gauge [psi]
# name 13 = tv290C: Temperature [ITS-90, deg C]
# name 14 = flag:  0.000e+00
# span 0 =     -0.585,      9.753       
# span 1 =      0.000,      0.161       
# span 2 =     7.2122,    11.6627       
# span 3 =     61.441,     99.399       
# span 4 =      0.357,     38.071       
# span 5 =   0.269682,  25.588426       
# span 6 =    -0.2218,     2.3141       
# span 7 =     -2.903,      8.142       
# span 8 =   221.7934,  1206.8772       
# span 9 = 1.2556e-01, 5.9155e+02       
# span 10 =    -0.2909,    17.6368      
# span 11 =     -0.574,      9.565      
# span 12 =     -0.832,     13.873      
# span 13 =     7.9734,    12.8206      
# span 14 = 0.0000e+00, 0.0000e+00      
# interval = seconds: 0.25
# start_time = Nov 19 2018 15:47:25 [Instrument's time stamp, header]
# bad_flag = -9.990e-29
# <Sensors count="9" >
#   <sensor Channel="1" >
#     <!-- Count, Temperature -->
#     <TemperatureSensor SensorID="58" >
#       <SerialNumber>7809</SerialNumber>
#       <CalibrationDate>09-Mar-18</CalibrationDate>
#       <A0>1.21093245e-003</A0>
#       <A1>2.84356597e-004</A1>
#       <A2>-1.94507398e-006</A2>
#       <A3>2.12806664e-007</A3>
#       <Slope>1.00000000</Slope>
#       <Offset>0.0000</Offset>
#     </TemperatureSensor>
#   </sensor>
#   <sensor Channel="2" >
#     <!-- Frequency 0, Conductivity -->
#     <ConductivitySensor SensorID="3" >
#       <SerialNumber>7809</SerialNumber>
#       <CalibrationDate>09-Mar-18</CalibrationDate>
#       <UseG_J>1</UseG_J>
#       <!-- Cell const and series R are applicable only for wide range sensors. -->
#       <SeriesR>0.0000</SeriesR>
#       <CellConst>2000.0000</CellConst>
#       <ConductivityType>0</ConductivityType>
#       <Coefficients equation="0" >
#         <A>0.00000000e+000</A>
#         <B>0.00000000e+000</B>
#         <C>0.00000000e+000</C>
#         <D>0.00000000e+000</D>
#         <M>0.0</M>
#         <CPcor>-9.57000000e-008</CPcor>
#       </Coefficients>
#       <Coefficients equation="1" >
#         <G>-1.00672082e+000</G>
#         <H>1.26906489e-001</H>
#         <I>-1.40584351e-004</I>
#         <J>2.47837121e-005</J>
#         <CPcor>-9.57000000e-008</CPcor>
#         <CTcor>3.2500e-006</CTcor>
#         <!-- WBOTC not applicable unless ConductivityType = 1. -->
#         <WBOTC>0.00000000e+000</WBOTC>
#       </Coefficients>
#       <Slope>1.00000000</Slope>
#       <Offset>0.00000</Offset>
#     </ConductivitySensor>
#   </sensor>
#   <sensor Channel="3" >
#     <!-- Count, Pressure, Strain Gauge -->
#     <PressureSensor SensorID="46" >
#       <SerialNumber>7809</SerialNumber>
#       <CalibrationDate>07-Mar-18</CalibrationDate>
#       <PA0>-4.08176359e-002</PA0>
#       <PA1>4.85188419e-004</PA1>
#       <PA2>-3.51168169e-012</PA2>
#       <PTEMPA0>-5.37806900e+001</PTEMPA0>
#       <PTEMPA1>5.36620721e+001</PTEMPA1>
#       <PTEMPA2>4.87214332e-002</PTEMPA2>
#       <PTCA0>5.25213435e+005</PTCA0>
#       <PTCA1>1.79532409e+000</PTCA1>
#       <PTCA2>-2.84353509e-001</PTCA2>
#       <PTCB0>2.51668750e+001</PTCB0>
#       <PTCB1>3.75000000e-004</PTCB1>
#       <PTCB2>0.00000000e+000</PTCB2>
#       <Offset>0.000000</Offset>
#     </PressureSensor>
#   </sensor>
#   <sensor Channel="4" >
#     <!-- A/D voltage 0, pH -->
#     <pH_Sensor SensorID="43" >
#       <SerialNumber>0363</SerialNumber>
#       <CalibrationDate>16-Mar-18</CalibrationDate>
#       <Slope>4.6194</Slope>
#       <Offset>2.5947</Offset>
#     </pH_Sensor>
#   </sensor>
#   <sensor Channel="5" >
#     <!-- A/D voltage 1, Oxidation Reduction Potential -->
#     <OxidationReductionPotentialSensor SensorID="41" >
#       <SerialNumber>0363</SerialNumber>
#       <CalibrationDate>16-Mar-18</CalibrationDate>
#       <B>2.499480</B>
#       <M>-0.496195</M>
#       <Offset>0.0</Offset>
#     </OxidationReductionPotentialSensor>
#   </sensor>
#   <sensor Channel="6" >
#     <!-- A/D voltage 2, Oxygen, SBE 43 -->
#     <OxygenSensor SensorID="38" >
#       <SerialNumber>0434</SerialNumber>
#       <CalibrationDate>13-Mar-18</CalibrationDate>
#       <Use2007Equation>1</Use2007Equation>
#       <CalibrationCoefficients equation="0" >
#         <!-- Coefficients for Owens-Millard equation. -->
#         <Boc>0.0000</Boc>
#         <Soc>0.0000e+000</Soc>
#         <offset>0.0000</offset>
#         <Pcor>0.00e+000</Pcor>
#         <Tcor>0.0000</Tcor>
#         <Tau>0.0</Tau>
#       </CalibrationCoefficients>
#       <CalibrationCoefficients equation="1" >
#         <!-- Coefficients for Sea-Bird equation - SBE calibration in 2007 and later. -->
#         <Soc>4.5718e-001</Soc>
#         <offset>-0.6113</offset>
#         <A>-4.0649e-003</A>
#         <B> 2.0945e-004</B>
#         <C>-3.3182e-006</C>
#         <D0> 2.5826e+000</D0>
#         <D1> 1.92634e-004</D1>
#         <D2>-4.64803e-002</D2>
#         <E> 3.6000e-002</E>
#         <Tau20> 1.2200</Tau20>
#         <H1>-3.3000e-002</H1>
#         <H2> 5.0000e+003</H2>
#         <H3> 1.4500e+003</H3>
#       </CalibrationCoefficients>
#     </OxygenSensor>
#   </sensor>
#   <sensor Channel="7" >
#     <!-- A/D voltage 3, PAR/Logarithmic, Satlantic -->
#     <PARLog_SatlanticSensor SensorID="76" >
#       <SerialNumber>1122</SerialNumber>
#       <CalibrationDate>22-Jun-2017</CalibrationDate>
#       <a0>9.6090e-001</a0>
#       <a1>8.0780e-001</a1>
#       <Im>1.3589e+000</Im>
#       <Multiplier>1.0000e+000</Multiplier>
#     </PARLog_SatlanticSensor>
#   </sensor>
#   <sensor Channel="8" >
#     <!-- A/D voltage 4, Fluorometer, WET Labs ECO-AFL/FL -->
#     <FluoroWetlabECO_AFL_FL_Sensor SensorID="20" >
#       <SerialNumber>FLNTURT-2496</SerialNumber>
#       <CalibrationDate>25-Jan-2017</CalibrationDate>
#       <ScaleFactor>5.30000000e+001</ScaleFactor>
#       <!-- Dark output -->
#       <Vblank>0.0560</Vblank>
#     </FluoroWetlabECO_AFL_FL_Sensor>
#   </sensor>
#   <sensor Channel="9" >
#     <!-- A/D voltage 5, Turbidity Meter, WET Labs, ECO-NTU -->
#     <TurbidityMeter SensorID="67" >
#       <SerialNumber>FLNTURT-2496</SerialNumber>
#       <CalibrationDate>25-Jan-2017</CalibrationDate>
#       <ScaleFactor>176.000000</ScaleFactor>
#       <!-- Dark output -->
#       <DarkVoltage>0.072000</DarkVoltage>
#     </TurbidityMeter>
#   </sensor>
# </Sensors>
# datcnv_date = Nov 19 2018 16:26:45, 7.26.7.114 [datcnv_vars = 14]
# datcnv_in = C:\DATA\111918_fcr50.hex C:\DATA\SBE19plusV2_7809.xmlcon
# datcnv_skipover = 0
# datcnv_ox_hysteresis_correction = yes
# datcnv_ox_tau_correction = yes
# filter_date = Nov 19 2018 16:27:05, 7.26.7.114
# filter_in = C:\DATA\111918_fcr50.cnv
# filter_low_pass_tc_A = 0.030
# filter_low_pass_tc_B = 0.150
# filter_low_pass_A_vars = prdM prdE tv290C
# filter_low_pass_B_vars = depFM dz/dtM sbeox0Mg/L sbeox0PS specc c0uS/cm flECO-AFL ph orp par/sat/log turbWETntu0
# alignctd_date = Nov 19 2018 16:27:22, 7.26.7.114
# alignctd_in = C:\DATA\111918_fcr50.cnv
# alignctd_adv = dz/dtM 1.000, sbeox0Mg/L 1.000, sbeox0PS 1.000, specc 1.000, c0uS/cm 1.000, flECO-AFL 1.000, ph 1.000, orp 1.000, turbWETntu0 1.000                                                                                 
# file_type = ascii
*END*
     -0.584 8.6907e-16    10.3203     97.489      0.673   0.508369    -0.2174     -2.900   891.2313 4.9789e+02    -0.0583     -0.573     -0.831    12.8206 0.0000e+00
     -0.584 9.5589e-15    10.3210     97.482      0.676   0.510678    -0.2192     -2.900   889.9634 4.8125e+02    -0.0398     -0.574     -0.832    12.8151 0.0000e+00
     -0.584 1.0515e-13    10.3216     97.479      0.693   0.523486    -0.2195     -2.901   888.1678 5.4674e+02    -0.0227     -0.573     -0.831    12.8077 0.0000e+00
     -0.584 1.1566e-12    10.3234     97.489      0.710   0.536398    -0.2218     -2.901   889.9113 5.9155e+02    -0.0343     -0.574     -0.832    12.7988 0.0000e+00
     -0.584 1.2723e-11    10.3244     97.493      0.715   0.539973    -0.2192     -2.901   891.8582 5.5693e+02    -0.0575     -0.573     -0.831    12.7889 0.0000e+00
     -0.585 1.3995e-10    10.3237     97.484      0.750   0.566711    -0.2159     -2.901   892.0899 5.1659e+02    -0.0294     -0.574     -0.832    12.7838 0.0000e+00
     -0.585 1.5395e-09    10.3246     97.492      0.802   0.606027    -0.2094     -2.901   892.1102 4.9854e+02     0.0313     -0.573     -0.831    12.7807 0.0000e+00
     -0.584 1.6934e-08    10.3270     97.515      0.840   0.634863    -0.2047     -2.901   892.0180 4.3207e+02     0.0660     -0.573     -0.831    12.7766 0.0000e+00
     -0.584 1.8627e-07    10.3268     97.514      0.876   0.661704    -0.2054     -2.901   891.9215 3.0707e+02     0.1160     -0.572     -0.830    12.7740 0.0000e+00
     -0.584 1.8627e-07    10.3253     97.502      0.896   0.676910    -0.1997     -2.901   891.8044 2.3307e+02     0.1774     -0.573     -0.831    12.7729 0.0000e+00
     -0.584 1.6934e-08    10.3252     97.504      0.916   0.691890    -0.1908     -2.901   891.6345 2.3386e+02     0.1979     -0.573     -0.831    12.7728 0.0000e+00
     -0.584 1.5395e-09    10.3251     97.505      0.948   0.715991    -0.1892     -2.901   891.5883 2.5671e+02     0.1199     -0.573     -0.831    12.7731 0.0000e+00
     -0.584 1.3995e-10    10.3248     97.504      0.946   0.714658    -0.1897     -2.901   891.4177 2.8336e+02    -0.0636     -0.573     -0.831    12.7740 0.0000e+00
     -0.584 1.2723e-11    10.3257     97.513      0.894   0.675770    -0.1876     -2.901   889.9155 3.1298e+02    -0.2197     -0.573     -0.831    12.7750 0.0000e+00
     -0.584 1.1566e-12    10.3277     97.534      0.829   0.626289    -0.1908     -2.901   888.7403 3.4333e+02    -0.2727     -0.572     -0.830    12.7758 0.0000e+00
     -0.584 1.0515e-13    10.3299     97.556      0.825   0.623698    -0.2008     -2.901   890.0279 3.5587e+02    -0.2776     -0.573     -0.830    12.7771 0.0000e+00
     -0.584 9.5590e-15    10.3305     97.561      0.853   0.644440    -0.2073     -2.901   891.2017 3.6619e+02    -0.2780     -0.573     -0.830    12.7780 0.0000e+00
     -0.584 8.6900e-16    10.3286     97.542      0.825   0.623427    -0.2052     -2.901   891.2314 3.9694e+02    -0.2479     -0.573     -0.830    12.7787 0.0000e+00
     -0.584 7.9032e-17    10.3266     97.517      0.825   0.623288    -0.2037     -2.901   891.3334 3.4615e+02    -0.2188     -0.573     -0.831    12.7795 0.0000e+00
     -0.584 7.5291e-18    10.3266     97.507      0.851   0.642758    -0.1985     -2.901   891.4889 2.0439e+02    -0.2004     -0.572     -0.830    12.7794 0.0000e+00
     -0.584 4.4712e-18    10.3278     97.509      0.801   0.605186    -0.1881     -2.901   891.5629 1.2194e+02    -0.0871     -0.573     -0.830    12.7792 0.0000e+00
     -0.584 4.2060e-17    10.3308     97.528      0.727   0.549490    -0.1879     -2.901   891.4532 1.1110e+02     0.0219     -0.572     -0.830    12.7789 0.0000e+00
     -0.584 4.6202e-16    10.3333     97.543      0.631   0.476645    -0.1969     -2.901   891.1948 1.0229e+02    -0.0116     -0.573     -0.830    12.7766 0.0000e+00
     -0.584 5.0821e-15    10.3346     97.544      0.559   0.421974    -0.2039     -2.901   890.9343 8.3825e+01    -0.0647     -0.572     -0.830    12.7717 0.0000e+00
     -0.584 5.5903e-14    10.3382     97.568      0.608   0.459181    -0.2084     -2.902   890.7985 6.6454e+01    -0.1015     -0.572     -0.830    12.7668 0.0000e+00
     -0.584 6.1494e-13    10.3412     97.585      0.639   0.482617    -0.2146     -2.902   890.8433 5.7898e+01    -0.1815     -0.573     -0.830    12.7631 0.0000e+00
     -0.584 6.7643e-12    10.3407     97.570      0.514   0.388274    -0.2146     -2.902   890.8734 5.8263e+01    -0.2389     -0.572     -0.830    12.7591 0.0000e+00
     -0.584 7.4407e-11    10.3405     97.559      0.357   0.269682    -0.1987     -2.902   890.8185 7.3100e+01    -0.2456     -0.573     -0.830    12.7543 0.0000e+00
     -0.584 8.1848e-10    10.3398     97.544      0.420   0.316995    -0.1880     -2.902   890.8682 9.3416e+01    -0.2625     -0.572     -0.829    12.7490 0.0000e+00
     -0.584 9.0033e-09    10.3370     97.510      0.600   0.453028    -0.1955     -2.902   891.0439 1.0081e+02    -0.2909     -0.572     -0.830    12.7437 0.0000e+00
     -0.584 9.9036e-08    10.3371     97.503      0.688   0.519356    -0.1983     -2.902   891.2216 1.0405e+02    -0.2835     -0.572     -0.829    12.7386 0.0000e+00
     -0.584      0.000    10.3401     97.522      0.726   0.548250    -0.1934     -2.903   891.2099 1.1313e+02    -0.2342     -0.573     -0.830    12.7353 0.0000e+00
     -0.584      0.000    10.3417     97.526      0.727   0.548725    -0.1919     -2.903   891.1604 1.3689e+02    -0.1829     -0.572     -0.829    12.7314 0.0000e+00
     -0.584      0.000    10.3448     97.543      0.696   0.525098    -0.1890     -2.903   891.8281 1.7939e+02    -0.1825     -0.572     -0.830    12.7284 0.0000e+00
     -0.584      0.001    10.3518     97.577      0.686   0.516229    -0.1950     -2.898   899.6276 2.1745e+02    -0.2300     -0.572     -0.829    12.7244 0.0000e+00
     -0.584      0.006    10.3836     97.592      0.761   0.568320    -0.2096     -2.852   985.9793 2.3591e+02    -0.2695     -0.572     -0.830    12.7211 0.0000e+00
     -0.583      0.015    10.5001     97.625      1.766   1.281757    -0.2094     -2.312  1142.7029 2.4481e+02    -0.2620     -0.572     -0.829    12.7137 0.0000e+00
     -0.583      0.030    10.7046     97.680      6.974   4.956806    -0.2010     -0.560  1206.8772 2.5716e+02    -0.2311     -0.572     -0.829    12.7128 0.0000e+00
     -0.579      0.049    10.9105     97.722     18.289  12.843542    -0.2004      2.025   967.8492 2.6728e+02    -0.2306     -0.572     -0.829    12.7038 0.0000e+00
     -0.566      0.072    11.0646     97.752     29.850  20.758255    -0.1936      4.236   511.5961 2.7044e+02    -0.2570     -0.559     -0.810    12.7091 0.0000e+00
     -0.541      0.093    11.1728     97.788     35.357  24.373490    -0.1826      5.702   256.2055 2.6658e+02    -0.2141     -0.531     -0.770    12.2739 0.0000e+00
     -0.511      0.113    11.2485     97.822     36.452  24.944790    -0.1875      6.688   231.3969 2.6219e+02     0.4098     -0.505     -0.732    11.2392 0.0000e+00
     -0.475      0.131    11.3013     97.837     36.546  24.872096    -0.1975      7.349   233.4911 2.7933e+02     1.5498     -0.467     -0.677    10.3728 0.0000e+00
     -0.436      0.146    11.3411     97.841     36.542  24.764243    -0.1927      7.754   234.2906 3.2178e+02     2.2163     -0.424     -0.615     9.8232 0.0000e+00
     -0.402      0.156    11.3796     97.861     36.620  24.719998    -0.1575      7.964   231.2549 3.6213e+02     2.6703     -0.396     -0.574     9.4394 0.0000e+00
     -0.365      0.161    11.4195     97.907     36.754  24.717977     0.1366      8.055   228.3633 3.8109e+02     6.5801     -0.365     -0.530     9.1935 0.0000e+00
     -0.316      0.161    11.4556     97.968     36.901  24.739717     0.6797      8.100   225.1396 3.6904e+02    13.6916     -0.310     -0.450     9.0074 0.0000e+00
     -0.266      0.158    11.4863     98.055     37.061  24.792304     0.9875      8.131   222.2194 3.2663e+02    17.5794     -0.255     -0.370     8.8831 0.0000e+00
     -0.227      0.150    11.5154     98.200     37.190  24.845818     1.0179      8.142   221.7934 2.9671e+02    17.6368     -0.222     -0.321     8.7485 0.0000e+00
     -0.192      0.135    11.5469     98.417     37.263  24.878791     1.0379      8.136   222.5694 2.9287e+02    13.9576     -0.189     -0.273     8.6160 0.0000e+00
     -0.157      0.115    11.5832     98.702     37.267  24.873504     1.0733      8.126   223.3425 2.9356e+02     7.1222     -0.151     -0.218     8.5083 0.0000e+00
     -0.128      0.099    11.6222     99.019     37.232  24.845370     1.0787      8.109   224.4299 2.9487e+02     3.4131     -0.121     -0.175     8.4341 0.0000e+00
     -0.108      0.085    11.6526     99.278     37.248  24.856081     1.0667      8.049   224.8754 2.9659e+02     3.1385     -0.102     -0.149     8.3952 0.0000e+00
     -0.093      0.072    11.6627     99.399     37.262  24.876028     1.0469      7.936   224.3419 2.9885e+02     3.1309     -0.092     -0.134     8.3765 0.0000e+00
     -0.078      0.059    11.6046     98.951     37.174  24.832594     1.0143      7.822   224.7760 3.0251e+02     3.1078     -0.080     -0.116     8.3691 0.0000e+00
     -0.060      0.048    11.4491     97.635     37.084  24.775378     1.0025      7.737   226.5097 3.0626e+02     3.1022     -0.057     -0.083     8.3635 0.0000e+00
     -0.045      0.039    11.2836     96.193     37.069  24.755659     1.0062      7.678   228.2684 3.0744e+02     3.0934     -0.039     -0.058     8.3559 0.0000e+00
     -0.039      0.030    11.1708     95.192     37.036  24.721148     1.0218      7.639   229.7791 3.0683e+02     3.0938     -0.038     -0.055     8.3739 0.0000e+00
     -0.037      0.022    11.0684     94.282     36.986  24.675538     1.0527      7.611   231.0952 3.0587e+02     3.1066     -0.037     -0.053     8.4083 0.0000e+00
     -0.034      0.015    10.9239     93.017     36.963  24.648622     1.0678      7.590   232.0498 3.0507e+02     3.0958     -0.033     -0.048     8.4086 0.0000e+00
     -0.031      0.010    10.7371     91.397     36.979  24.649661     1.0665      7.575   232.8897 3.0470e+02     3.0852     -0.032     -0.046     8.3885 0.0000e+00
     -0.028      0.008    10.5514     89.793     37.049  24.688085     1.0655      7.567   233.7638 3.0485e+02     3.0699     -0.028     -0.040     8.3714 0.0000e+00
     -0.026      0.007    10.3871     88.377     37.124  24.732254     1.0464      7.564   234.5313 3.0505e+02     3.0635     -0.025     -0.036     8.3553 0.0000e+00
     -0.025      0.005    10.2181     86.929     37.140  24.739267     1.0103      7.565   235.3726 3.0488e+02     3.1000     -0.024     -0.035     8.3392 0.0000e+00
     -0.025      0.003    10.0239     85.269     37.100  24.709379     0.9961      7.570   236.3638 3.0512e+02     3.1139     -0.024     -0.035     8.3257 0.0000e+00
     -0.024      0.001     9.8308     83.617     37.073  24.688329     1.0036      7.574   237.2238 3.0567e+02     3.1103     -0.024     -0.034     8.3159 0.0000e+00
     -0.024      0.000     9.6742     82.281     37.056  24.675229     1.0080      7.575   237.8557 3.0607e+02     3.1178     -0.024     -0.034     8.3066 0.0000e+00
     -0.024 2.2352e-08     9.5620     81.338     37.054  24.677960     1.0031      7.573   238.4110 3.0622e+02     3.1125     -0.024     -0.035     8.3033 0.0000e+00
