* Sea-Bird SBE19plus  Data File:
* FileName = C:\R\Reservoirs\Data\DataNotYetUploadedToEDI\Raw_CTD\RawDownloads\112822_bvr50_S8188_0007.hex
* Software version 2.8.0.119
* Temperature SN = 8188
* Conductivity SN = 8188
* System UpLoad Time = Nov 28 2022 17:04:19
* <ApplicationData>
* <Seaterm232>
* <SoftwareVersion>2.8.0.119</SoftwareVersion>
* <BuildDate>07-Nov-2018</BuildDate>
* </Seaterm232>
* </ApplicationData>
* <InstrumentState>
* <HardwareData DeviceType='SBE19plus' SerialNumber='01908188'>
*
*    <Manufacturer>Sea-Bird Electronics, Inc.</Manufacturer>
*
*    <FirmwareVersion>3.1.8</FirmwareVersion>
*
*    <FirmwareDate>Mar  9 2016 16:22:29</FirmwareDate>
*
*    <CommandSetVersion>1.4</CommandSetVersion>
*
*    <PCBAssembly PCBSerialNum='260079' AssemblyNum='41054K'/>
*
*    <PCBAssembly PCBSerialNum='260083' AssemblyNum='41059E'/>
*
*    <PCBAssembly PCBSerialNum='260085' AssemblyNum='41606B'/>
*
*    <PCBAssembly PCBSerialNum='260081' AssemblyNum='41967C'/>
*
*    <MfgDate>30 Mar 2022</MfgDate>
*
*    <InternalSensors>
*
*       <Sensor id='Main Temperature'>
*
*          <type>temperature0</type>
*
*          <SerialNumber>01908188</SerialNumber>
*
*       </Sensor>
*
*       <Sensor id='Main Conductivity'>
*
*          <type>conductivity-0</type>
*
*          <SerialNumber>01908188</SerialNumber>
*
*       </Sensor>
*
*       <Sensor id='Main Pressure'>
*
*          <type>strain-0</type>
*
*          <SerialNumber>12220741</SerialNumber>
*
*       </Sensor>
*
*    </InternalSensors>
*
*    <ExternalSensors>
*
*       <Sensor id='volt 0'>
*
*          <type>CHL</type>
*
*          <SerialNumber>FLNTURT-7096</SerialNumber>
*
*       </Sensor>
*
*       <Sensor id='volt 1'>
*
*          <type>NTU</type>
*
*          <SerialNumber>FLNTURT-7096</SerialNumber>
*
*       </Sensor>
*
*       <Sensor id='volt 2'>
*
*          <type>OXY</type>
*
*          <SerialNumber>43-4269</SerialNumber>
*
*       </Sensor>
*
*       <Sensor id='volt 3'>
*
*          <type>not assigned</type>
*
*          <SerialNumber>not assigned</SerialNumber>
*
*       </Sensor>
*
*       <Sensor id='volt 4'>
*
*          <type>PAR</type>
*
*          <SerialNumber>PARLOGICSW-2209</SerialNumber>
*
*       </Sensor>
*
*       <Sensor id='volt 5'>
*
*          <type>not assigned</type>
*
*          <SerialNumber>not assigned</SerialNumber>
*
*       </Sensor>
*
*       <Sensor id='serial'>
*
*          <type>WETLABS</type>
*
*          <SerialNumber>FL3-7350</SerialNumber>
*
*       </Sensor>
*
*    </ExternalSensors>
*
* </HardwareData>
* <StatusData DeviceType='SBE19plus' SerialNumber='01908188'>
*
*    <DateTime>2022-11-28T15:01:11</DateTime>
*
*    <LoggingState>not logging</LoggingState>
*
*    <EventSummary numEvents='0'/>
*
*    <Power>
*
*       <vMain>13.2</vMain>
*
*       <vLith>8.3</vLith>
*
*       <iMain>61.7</iMain>
*
*       <iPump>57.2</iPump>
*
*       <iExt01>21.2</iExt01>
*
*       <iExt2345>20.3</iExt2345>
*
*       <iSerial>43.7</iSerial>
*
*    </Power>
*
*    <MemorySummary>
*
*       <Bytes>303600</Bytes>
*
*       <Samples>12144</Samples>
*
*       <SamplesFree>2619781</SamplesFree>
*
*       <SampleLength>25</SampleLength>
*
*       <Profiles>8</Profiles>
*
*    </MemorySummary>
*
* </StatusData>
* <ConfigurationData DeviceType='SBE19plus' SerialNumber='01908188'>
*
*    <ProfileMode>
*
*       <ScansToAverage>1</ScansToAverage>
*
*       <MinimumCondFreq>5</MinimumCondFreq>
*
*       <PumpDelay>40</PumpDelay>
*
*       <AutoRun>no</AutoRun>
*
*       <IgnoreSwitch>no</IgnoreSwitch>
*
*    </ProfileMode>
*
*    <Battery>
*
*       <Type>alkaline</Type>
*
*       <CutOff>7.5</CutOff>
*
*    </Battery>
*
*    <DataChannels>
*
*       <ExtVolt0>yes</ExtVolt0>
*
*       <ExtVolt1>yes</ExtVolt1>
*
*       <ExtVolt2>yes</ExtVolt2>
*
*       <ExtVolt3>no</ExtVolt3>
*
*       <ExtVolt4>yes</ExtVolt4>
*
*       <ExtVolt5>no</ExtVolt5>
*
*       <SBE38>no</SBE38>
*
*       <WETLABS>yes</WETLABS>
*
*       <OPTODE>no</OPTODE>
*
*       <SBE63>no</SBE63>
*
*       <SeaFET>no</SeaFET>
*
*       <GTD>no</GTD>
*
*    </DataChannels>
*
*    <EchoCharacters>yes</EchoCharacters>
*
*    <OutputExecutedTag>yes</OutputExecutedTag>
*
*    <OutputFormat>raw HEX</OutputFormat>
*
* </ConfigurationData>
* <CalibrationCoefficients DeviceType='SBE19plus' SerialNumber='01908188'>
*
*    <Calibration format='TEMP1' id='Main Temperature'>
*
*       <SerialNum>01908188</SerialNum>
*
*       <CalDate>21-Aug-22</CalDate>
*
*       <TA0>1.265284e-03</TA0>
*
*       <TA1>2.691806e-04</TA1>
*
*       <TA2>-5.655711e-07</TA2>
*
*       <TA3>1.602369e-07</TA3>
*
*       <TOFFSET>0.000000e+00</TOFFSET>
*
*    </Calibration>
*
*    <Calibration format='WBCOND0' id='Main Conductivity'>
*
*       <SerialNum>01908188</SerialNum>
*
*       <CalDate>21-Aug-22</CalDate>
*
*       <G>-1.009562e+00</G>
*
*       <H>1.439229e-01</H>
*
*       <I>-4.343583e-04</I>
*
*       <J>5.328694e-05</J>
*
*       <CPCOR>-9.570000e-08</CPCOR>
*
*       <CTCOR>3.250000e-06</CTCOR>
*
*       <CSLOPE>1.000000e+00</CSLOPE>
*
*    </Calibration>
*
*    <Calibration format='STRAIN0' id='Main Pressure'>
*
*       <SerialNum>12220741</SerialNum>
*
*       <CalDate>11-Aug-22</CalDate>
*
*       <PA0>1.627942e-01</PA0>
*
*       <PA1>4.835849e-04</PA1>
*
*       <PA2>-3.975488e-12</PA2>
*
*       <PTCA0>5.244803e+05</PTCA0>
*
*       <PTCA1>2.817194e+01</PTCA1>
*
*       <PTCA2>-5.842684e-01</PTCA2>
*
*       <PTCB0>2.522087e+01</PTCB0>
*
*       <PTCB1>5.750000e-04</PTCB1>
*
*       <PTCB2>0.000000e+00</PTCB2>
*
*       <PTEMPA0>-5.709556e+01</PTEMPA0>
*
*       <PTEMPA1>5.248567e+01</PTEMPA1>
*
*       <PTEMPA2>-2.281498e-01</PTEMPA2>
*
*       <POFFSET>-4.700000e-02</POFFSET>
*
*       <PRANGE>1.600000e+02</PRANGE>
*
*    </Calibration>
*
*    <Calibration format='VOLT0' id='Volt 0'>
*
*       <OFFSET>-4.657200e-02</OFFSET>
*
*       <SLOPE>1.248989e+00</SLOPE>
*
*    </Calibration>
*
*    <Calibration format='VOLT0' id='Volt 1'>
*
*       <OFFSET>-4.600800e-02</OFFSET>
*
*       <SLOPE>1.249849e+00</SLOPE>
*
*    </Calibration>
*
*    <Calibration format='VOLT0' id='Volt 2'>
*
*       <OFFSET>-4.668000e-02</OFFSET>
*
*       <SLOPE>1.250379e+00</SLOPE>
*
*    </Calibration>
*
*    <Calibration format='VOLT0' id='Volt 3'>
*
*       <OFFSET>-4.643200e-02</OFFSET>
*
*       <SLOPE>1.251002e+00</SLOPE>
*
*    </Calibration>
*
*    <Calibration format='VOLT0' id='Volt 4'>
*
*       <OFFSET>-4.606100e-02</OFFSET>
*
*       <SLOPE>1.249962e+00</SLOPE>
*
*    </Calibration>
*
*    <Calibration format='VOLT0' id='Volt 5'>
*
*       <OFFSET>-4.642700e-02</OFFSET>
*
*       <SLOPE>1.248530e+00</SLOPE>
*
*    </Calibration>
*
*    <Calibration format='FREQ0' id='external frequency channel'>
*
*       <EXTFREQSF>1.000018e+00</EXTFREQSF>
*
*    </Calibration>
*
* </CalibrationCoefficients>
* <EventCounters DeviceType='SBE19plus' SerialNumber='01908188'>
*
*    <EventSummary numEvents='0'/>
*
* </EventCounters></InstrumentState>
* <Headers>
*
* cast   7 28 Nov 2022 07:49:52 samples 10000 to 10933, avg = 1, stop = mag switch
*
# nquan = 16
# nvalues = 934                         
# units = specified
# name 0 = depFM: Depth [fresh water, m]
# name 1 = dz/dtM: Descent Rate [m/s]
# name 2 = sbeox0Mg/L: Oxygen, SBE 43 [mg/l]
# name 3 = sbeox0PS: Oxygen, SBE 43 [% saturation]
# name 4 = specc: Specific Conductance [uS/cm]
# name 5 = c0uS/cm: Conductivity [uS/cm]
# name 6 = wetCDOM: Fluorescence, WET Labs CDOM [mg/m^3]
# name 7 = flECO-AFL: Fluorescence, WET Labs ECO-AFL/FL [mg/m^3]
# name 8 = flECO-AFL1: Fluorescence, WET Labs ECO-AFL/FL, 2 [mg/m^3]
# name 9 = flECO-AFL2: Fluorescence, WET Labs ECO-AFL/FL, 3 [mg/m^3]
# name 10 = par/sat/log: PAR/Logarithmic, Satlantic
# name 11 = turbWETntu0: Turbidity, WET Labs ECO [NTU]
# name 12 = prdM: Pressure, Strain Gauge [db]
# name 13 = prdE: Pressure, Strain Gauge [psi]
# name 14 = tv290C: Temperature [ITS-90, deg C]
# name 15 = flag:  0.000e+00
# span 0 =     -0.807,      6.455       
# span 1 =     -0.199,      0.150       
# span 2 =     7.2561,    11.6896       
# span 3 =     60.013,     95.217       
# span 4 =      0.582,     40.089       
# span 5 =   0.422575,  25.280639       
# span 6 =    -0.7200,     7.2900       
# span 7 =    -0.5580,     5.2557       
# span 8 =    -1.0650,     0.7668       
# span 9 =    -0.8460,     3.6801       
# span 10 = 1.1597e-01, 2.6377e+03      
# span 11 =    -2.8132,   338.5513      
# span 12 =     -0.792,      6.331      
# span 13 =     -1.148,      9.182      
# span 14 =     6.5107,    11.2986      
# span 15 = 0.0000e+00, 0.0000e+00      
# interval = seconds: 0.25
# start_time = Nov 28 2022 07:49:52 [Instrument's time stamp, header]
# bad_flag = -9.990e-29
# <Sensors count="10" >
#   <sensor Channel="1" >
#     <!-- Count, Temperature -->
#     <TemperatureSensor SensorID="58" >
#       <SerialNumber>8188</SerialNumber>
#       <CalibrationDate>21-Aug-22</CalibrationDate>
#       <A0>1.26528397e-003</A0>
#       <A1>2.69180636e-004</A1>
#       <A2>-5.65571102e-007</A2>
#       <A3>1.60236871e-007</A3>
#       <Slope>1.00000000</Slope>
#       <Offset>0.0000</Offset>
#     </TemperatureSensor>
#   </sensor>
#   <sensor Channel="2" >
#     <!-- Frequency 0, Conductivity -->
#     <ConductivitySensor SensorID="3" >
#       <SerialNumber>8188</SerialNumber>
#       <CalibrationDate>21-Aug-22</CalibrationDate>
#       <UseG_J>1</UseG_J>
#       <!-- Cell const and series R are applicable only for wide range sensors. -->
#       <SeriesR>0.0000</SeriesR>
#       <CellConst>2000.0000</CellConst>
#       <ConductivityType>0</ConductivityType>
#       <Coefficients equation="0" >
#         <A>0.00000000e+000</A>
#         <B>0.00000000e+000</B>
#         <C>0.00000000e+000</C>
#         <D>0.00000000e+000</D>
#         <M>0.0</M>
#         <CPcor>-9.57000000e-008</CPcor>
#       </Coefficients>
#       <Coefficients equation="1" >
#         <G>-1.00956200e+000</G>
#         <H>1.43922862e-001</H>
#         <I>-4.34358337e-004</I>
#         <J>5.32869425e-005</J>
#         <CPcor>-9.57000000e-008</CPcor>
#         <CTcor>3.2500e-006</CTcor>
#         <!-- WBOTC not applicable unless ConductivityType = 1. -->
#         <WBOTC>0.00000000e+000</WBOTC>
#       </Coefficients>
#       <Slope>1.00000000</Slope>
#       <Offset>0.00000</Offset>
#     </ConductivitySensor>
#   </sensor>
#   <sensor Channel="3" >
#     <!-- Count, Pressure, Strain Gauge -->
#     <PressureSensor SensorID="46" >
#       <SerialNumber>8188</SerialNumber>
#       <CalibrationDate>11-Aug-22</CalibrationDate>
#       <PA0>1.62794185e-001</PA0>
#       <PA1>4.83584930e-004</PA1>
#       <PA2>-3.97548787e-012</PA2>
#       <PTEMPA0>-5.70955636e+001</PTEMPA0>
#       <PTEMPA1>5.24856726e+001</PTEMPA1>
#       <PTEMPA2>-2.28149804e-001</PTEMPA2>
#       <PTCA0>5.24480263e+005</PTCA0>
#       <PTCA1>2.81719406e+001</PTCA1>
#       <PTCA2>-5.84268386e-001</PTCA2>
#       <PTCB0>2.52208750e+001</PTCB0>
#       <PTCB1>5.75000000e-004</PTCB1>
#       <PTCB2>0.00000000e+000</PTCB2>
#       <Offset>0.000000</Offset>
#     </PressureSensor>
#   </sensor>
#   <sensor Channel="4" >
#     <!-- A/D voltage 0, Fluorometer, WET Labs ECO-AFL/FL -->
#     <FluoroWetlabECO_AFL_FL_Sensor SensorID="20" >
#       <SerialNumber>FLNTURT-7096</SerialNumber>
#       <CalibrationDate>01-Sep-2022</CalibrationDate>
#       <ScaleFactor>5.00000000e+001</ScaleFactor>
#       <!-- Dark output -->
#       <Vblank>0.0680</Vblank>
#     </FluoroWetlabECO_AFL_FL_Sensor>
#   </sensor>
#   <sensor Channel="5" >
#     <!-- A/D voltage 1, Turbidity Meter, WET Labs, ECO-NTU -->
#     <TurbidityMeter SensorID="67" >
#       <SerialNumber>FLNTURT-7096</SerialNumber>
#       <CalibrationDate>01-Sep-2022</CalibrationDate>
#       <ScaleFactor>197.000000</ScaleFactor>
#       <!-- Dark output -->
#       <DarkVoltage>0.067000</DarkVoltage>
#     </TurbidityMeter>
#   </sensor>
#   <sensor Channel="6" >
#     <!-- A/D voltage 2, Oxygen, SBE 43 -->
#     <OxygenSensor SensorID="38" >
#       <SerialNumber>4269</SerialNumber>
#       <CalibrationDate>16-Aug-22</CalibrationDate>
#       <Use2007Equation>1</Use2007Equation>
#       <CalibrationCoefficients equation="0" >
#         <!-- Coefficients for Owens-Millard equation. -->
#         <Boc>0.0000</Boc>
#         <Soc>0.0000e+000</Soc>
#         <offset>0.0000</offset>
#         <Pcor>0.00e+000</Pcor>
#         <Tcor>0.0000</Tcor>
#         <Tau>0.0</Tau>
#       </CalibrationCoefficients>
#       <CalibrationCoefficients equation="1" >
#         <!-- Coefficients for Sea-Bird equation - SBE calibration in 2007 and later. -->
#         <Soc>4.2506e-001</Soc>
#         <offset>-0.4922</offset>
#         <A>-4.5893e-003</A>
#         <B> 1.8653e-004</B>
#         <C>-2.0781e-006</C>
#         <D0> 2.5826e+000</D0>
#         <D1> 1.92634e-004</D1>
#         <D2>-4.64803e-002</D2>
#         <E> 3.6000e-002</E>
#         <Tau20> 2.3100</Tau20>
#         <H1>-3.3000e-002</H1>
#         <H2> 5.0000e+003</H2>
#         <H3> 1.4500e+003</H3>
#       </CalibrationCoefficients>
#     </OxygenSensor>
#   </sensor>
#   <sensor Channel="7" >
#     <!-- A/D voltage 3, PAR/Logarithmic, Satlantic -->
#     <PARLog_SatlanticSensor SensorID="76" >
#       <SerialNumber>2209</SerialNumber>
#       <CalibrationDate>14-Jan-2022</CalibrationDate>
#       <a0>9.8861e-001</a0>
#       <a1>8.0845e-001</a1>
#       <Im>1.3589e+000</Im>
#       <Multiplier>1.0000e+000</Multiplier>
#     </PARLog_SatlanticSensor>
#   </sensor>
#   <sensor Channel="8" >
#     <!-- Serial RS-232, Fluorometer, WET Labs ECO-AFL/FL, 2 -->
#     <FluoroWetlabECO_AFL_FL_Sensor SensorID="20" >
#       <SerialNumber>FL3-7350</SerialNumber>
#       <CalibrationDate>10-Mar-2022</CalibrationDate>
#       <ScaleFactor>4.26000000e-002</ScaleFactor>
#       <!-- Dark output -->
#       <Vblank>50.0000</Vblank>
#     </FluoroWetlabECO_AFL_FL_Sensor>
#   </sensor>
#   <sensor Channel="9" >
#     <!-- Serial RS-232, Fluorometer, WET Labs ECO-AFL/FL, 3 -->
#     <FluoroWetlabECO_AFL_FL_Sensor SensorID="20" >
#       <SerialNumber>FL3-7350</SerialNumber>
#       <CalibrationDate>10-Mar-2022</CalibrationDate>
#       <ScaleFactor>4.23000000e-002</ScaleFactor>
#       <!-- Dark output -->
#       <Vblank>48.0000</Vblank>
#     </FluoroWetlabECO_AFL_FL_Sensor>
#   </sensor>
#   <sensor Channel="10" >
#     <!-- Serial RS-232, Fluorometer, WET Labs ECO CDOM -->
#     <FluoroWetlabCDOM_Sensor SensorID="19" >
#       <SerialNumber>FL3-7350</SerialNumber>
#       <CalibrationDate>10-Mar-2022</CalibrationDate>
#       <ScaleFactor>0.090</ScaleFactor>
#       <!-- Dark output -->
#       <Vblank>50.000</Vblank>
#     </FluoroWetlabCDOM_Sensor>
#   </sensor>
# </Sensors>
# datcnv_date = Dec 12 2022 16:31:49, 7.26.7.129 [datcnv_vars = 15]
# datcnv_in = C:\R\Reservoirs\Data\DataNotYetUploadedToEDI\Raw_CTD\RawDownloads\112822_bvr50_S8188007.hex C:\R\Reservoirs\Data\DataNotYetUploadedToEDI\Raw_CTD\RawDownloads\SBE19plusV2_8188_start20221003.xmlcon
# datcnv_skipover = 0
# datcnv_ox_hysteresis_correction = yes
# datcnv_ox_tau_correction = yes
# filter_date = Dec 12 2022 16:32:33, 7.26.7.129
# filter_in = C:\R\Reservoirs\Data\DataNotYetUploadedToEDI\Raw_CTD\RawDownloads\112822_bvr50_S8188007.cnv
# filter_low_pass_tc_A = 0.500
# filter_low_pass_tc_B = 1.000
# filter_low_pass_A_vars = sbeox0Mg/L sbeox0PS specc c0uS/cm tv290C
# filter_low_pass_B_vars = depFM dz/dtM prdM prdE
# alignctd_date = Dec 12 2022 16:33:09, 7.26.7.129
# alignctd_in = C:\R\Reservoirs\Data\DataNotYetUploadedToEDI\Raw_CTD\RawDownloads\112822_bvr50_S8188007.cnv
# alignctd_adv = dz/dtM 1.000, sbeox0PS 1.000, specc 1.000, c0uS/cm 1.000, flECO-AFL 1.000, turbWETntu0 1.000                                                                                                                        
# file_type = ascii
*END*
     -0.807      0.000     9.8614     90.087      0.591   0.428950     0.0000    -0.1155     0.0000     0.1692 1.1617e-01     2.5225     -0.792     -1.148    11.2986 0.0000e+00
     -0.807      0.000     9.8624     90.092      0.594   0.431046     0.0000    -0.1079     0.0000     0.1692 1.1612e-01     2.5376     -0.791     -1.148    11.2984 0.0000e+00
     -0.807      0.000     9.8634     90.092      0.596   0.432449     0.1800    -0.1155     0.0000     0.0846 1.1615e-01     2.4474     -0.791     -1.147    11.2982 0.0000e+00
     -0.807      0.000     9.8647     90.090      0.592   0.429578     0.1800    -0.1575     0.0000     0.0846 1.1605e-01     2.0416     -0.791     -1.147    11.2979 0.0000e+00
     -0.807      0.000     9.8659     90.087      0.586   0.425621     0.1800    -0.1689     0.0000     0.0846 1.1620e-01     2.1167     -0.791     -1.147    11.2977 0.0000e+00
     -0.807      0.000     9.8664     90.086      0.583   0.423477     0.1800    -0.1651     0.0000     0.0846 1.1607e-01     2.0115     -0.791     -1.147    11.2974 0.0000e+00
     -0.807      0.000     9.8666     90.082      0.582   0.422575     0.0000    -0.1803     0.0000     0.0423 1.1600e-01     2.1017     -0.791     -1.147    11.2971 0.0000e+00
     -0.807      0.000     9.8664     90.069      0.582   0.422675     0.0000    -0.1231     0.0000     0.0423 1.1633e-01     2.7780     -0.791     -1.147    11.2968 0.0000e+00
     -0.807      0.000     9.8661     90.052      0.584   0.423803     0.0000    -0.0850     0.0000     0.0423 1.1623e-01     2.8081     -0.791     -1.147    11.2965 0.0000e+00
     -0.806      0.001     9.8661     90.031      0.587   0.426259     0.0000    -0.1193     0.0000     0.0423 1.1605e-01     2.9133     -0.791     -1.147    11.2962 0.0000e+00
     -0.806      0.001     9.8657     90.010      0.594   0.430700     0.0000    -0.1079     0.0000     0.0000 1.1628e-01     2.7480     -0.790     -1.147    11.2958 0.0000e+00
     -0.806      0.001     9.8644     89.991      0.599   0.434354     0.0000    -0.0697     0.0000     0.0000 1.1628e-01     2.9434     -0.790     -1.147    11.2955 0.0000e+00
     -0.806      0.001     9.8626     89.979      0.599   0.434242     0.0000    -0.0697     0.0000     0.0000 1.1612e-01     2.8983     -0.790     -1.146    11.2952 0.0000e+00
     -0.805      0.002     9.8604     89.978      0.599   0.434288     0.0000    -0.0506     0.0000     0.0000 1.1628e-01     2.9734     -0.790     -1.146    11.2949 0.0000e+00
     -0.805      0.002     9.8582     89.991      0.605   0.438459     0.0000    -0.0659     0.0000     0.1692 1.1602e-01     2.9734     -0.789     -1.145    11.2946 0.0000e+00
     -0.804      0.003     9.8561     90.014      0.618   0.447866     0.0000    -0.1498     0.0000     0.1692 1.1612e-01     0.0726     -0.789     -1.144    11.2944 0.0000e+00
     -0.804      0.003     9.8548     90.047      0.642   0.465020     0.0000    -0.1269     0.0000     0.1692 1.1623e-01     0.1478     -0.788     -1.143    11.2942 0.0000e+00
     -0.803      0.004     9.8547     90.087      0.679   0.490539     0.0000    -0.1269     0.0000     0.1692 1.1617e-01     0.1327     -0.787     -1.142    11.2940 0.0000e+00
     -0.802      0.005     9.8563     90.117      0.732   0.527275     0.0000    -0.1079     0.0000     0.1692 1.1628e-01     0.2379     -0.786     -1.141    11.2936 0.0000e+00
     -0.801      0.006     9.8590     90.125      0.815   0.585024     0.0000    -0.1231     0.0426    -0.0423 1.1633e-01     0.0726     -0.785     -1.139    11.2930 0.0000e+00
     -0.799      0.008     9.8628     90.118      0.943   0.673254     0.0000    -0.1269     0.0426    -0.0423 1.1600e-01     0.1177     -0.784     -1.137    11.2920 0.0000e+00
     -0.797      0.010     9.8676     90.101      1.137   0.807584     0.0000    -0.1155     0.0426    -0.0423 1.1610e-01     0.0726     -0.782     -1.134    11.2903 0.0000e+00
     -0.795      0.012     9.8716     90.082      1.443   1.017906     0.0000    -0.1155     0.0426    -0.0423 1.1605e-01     0.1327     -0.779     -1.130    11.2875 0.0000e+00
