* Sea-Bird SBE19plus  Data File:
* FileName = C:\DATA\120618_fcr50_0001.hex
* Software version 2.6.3.104
* Temperature SN = 7809
* Conductivity SN = 7809
* System UpLoad Time = Dec 06 2018 16:36:23
* <ApplicationData>
* <Seaterm232>
* <SoftwareVersion>2.6.3.104</SoftwareVersion>
* <BuildDate>30-Jun-2017</BuildDate>
* </Seaterm232>
* </ApplicationData>
* <InstrumentState>
* <HardwareData DeviceType='SBE19plus' SerialNumber='01907809'>
*
*    <Manufacturer>Sea-Bird Electronics, Inc.</Manufacturer>
*
*    <FirmwareVersion>3.1.8</FirmwareVersion>
*
*    <FirmwareDate>Mar  9 2016 16:22:29</FirmwareDate>
*
*    <CommandSetVersion>1.4</CommandSetVersion>
*
*    <PCBAssembly PCBSerialNum='120721' AssemblyNum='41054J'/>
*
*    <PCBAssembly PCBSerialNum='120715' AssemblyNum='41967A'/>
*
*    <PCBAssembly PCBSerialNum='116699' AssemblyNum='41606'/>
*
*    <PCBAssembly PCBSerialNum='120719' AssemblyNum='41059D'/>
*
*    <MfgDate>28-Apr-2017</MfgDate>
*
*    <InternalSensors>
*
*       <Sensor id='Main Temperature'>
*
*          <type>temperature0</type>
*
*          <SerialNumber>01907809</SerialNumber>
*
*       </Sensor>
*
*       <Sensor id='Main Conductivity'>
*
*          <type>conductivity-0</type>
*
*          <SerialNumber>01907809</SerialNumber>
*
*       </Sensor>
*
*       <Sensor id='Main Pressure'>
*
*          <type>strain-0</type>
*
*          <SerialNumber>10586018</SerialNumber>
*
*       </Sensor>
*
*    </InternalSensors>
*
*    <ExternalSensors>
*
*       <Sensor id='volt 0'>
*
*          <type>pH</type>
*
*          <SerialNumber>27-0363</SerialNumber>
*
*       </Sensor>
*
*       <Sensor id='volt 1'>
*
*          <type>ORP</type>
*
*          <SerialNumber>27-0363</SerialNumber>
*
*       </Sensor>
*
*       <Sensor id='volt 2'>
*
*          <type>OXY</type>
*
*          <SerialNumber>43-0434</SerialNumber>
*
*       </Sensor>
*
*       <Sensor id='volt 3'>
*
*          <type>PAR</type>
*
*          <SerialNumber>1122</SerialNumber>
*
*       </Sensor>
*
*       <Sensor id='volt 4'>
*
*          <type>ECO AFL/FL</type>
*
*          <SerialNumber>FLNTURT-2496</SerialNumber>
*
*       </Sensor>
*
*       <Sensor id='volt 5'>
*
*          <type>ECO-NTU</type>
*
*          <SerialNumber>FLNTURT-2496</SerialNumber>
*
*       </Sensor>
*
*       <Sensor id='serial'>
*
*          <type>not assigned</type>
*
*          <SerialNumber>not assigned</SerialNumber>
*
*       </Sensor>
*
*    </ExternalSensors>
*
* </HardwareData>
* <StatusData DeviceType='SBE19plus' SerialNumber='01907809'>
*
*    <DateTime>2018-12-06T21:35:51</DateTime>
*
*    <LoggingState>not logging</LoggingState>
*
*    <EventSummary numEvents='0'/>
*
*    <Power>
*
*       <vMain>12.7</vMain>
*
*       <vLith>8.3</vLith>
*
*       <iMain>63.1</iMain>
*
*       <iPump>89.3</iPump>
*
*       <iExt01>14.6</iExt01>
*
*       <iExt2345>45.5</iExt2345>
*
*    </Power>
*
*    <MemorySummary>
*
*       <Bytes>35719</Bytes>
*
*       <Samples>1553</Samples>
*
*       <SamplesFree>2859235</SamplesFree>
*
*       <SampleLength>23</SampleLength>
*
*       <Profiles>2</Profiles>
*
*    </MemorySummary>
*
* </StatusData>
* <ConfigurationData DeviceType='SBE19plus' SerialNumber='01907809'>
*
*    <ProfileMode>
*
*       <ScansToAverage>1</ScansToAverage>
*
*       <MinimumCondFreq>5</MinimumCondFreq>
*
*       <PumpDelay>45</PumpDelay>
*
*       <AutoRun>no</AutoRun>
*
*       <IgnoreSwitch>no</IgnoreSwitch>
*
*    </ProfileMode>
*
*    <Battery>
*
*       <Type>alkaline</Type>
*
*       <CutOff>7.5</CutOff>
*
*    </Battery>
*
*    <DataChannels>
*
*       <ExtVolt0>yes</ExtVolt0>
*
*       <ExtVolt1>yes</ExtVolt1>
*
*       <ExtVolt2>yes</ExtVolt2>
*
*       <ExtVolt3>yes</ExtVolt3>
*
*       <ExtVolt4>yes</ExtVolt4>
*
*       <ExtVolt5>yes</ExtVolt5>
*
*       <SBE38>no</SBE38>
*
*       <WETLABS>no</WETLABS>
*
*       <OPTODE>no</OPTODE>
*
*       <SBE63>no</SBE63>
*
*       <SeaFET>no</SeaFET>
*
*       <GTD>no</GTD>
*
*    </DataChannels>
*
*    <EchoCharacters>yes</EchoCharacters>
*
*    <OutputExecutedTag>yes</OutputExecutedTag>
*
*    <OutputFormat>raw HEX</OutputFormat>
*
* </ConfigurationData>
* <CalibrationCoefficients DeviceType='SBE19plus' SerialNumber='01907809'>
*
*    <Calibration format='TEMP1' id='Main Temperature'>
*
*       <SerialNum>01907809</SerialNum>
*
*       <CalDate>09-Mar-18</CalDate>
*
*       <TA0>1.210932e-03</TA0>
*
*       <TA1>2.843566e-04</TA1>
*
*       <TA2>-1.945074e-06</TA2>
*
*       <TA3>2.128067e-07</TA3>
*
*       <TOFFSET>0.000000e+00</TOFFSET>
*
*    </Calibration>
*
*    <Calibration format='WBCOND0' id='Main Conductivity'>
*
*       <SerialNum>01907809</SerialNum>
*
*       <CalDate>09-Mar-18</CalDate>
*
*       <G>-1.006721e+00</G>
*
*       <H>1.269065e-01</H>
*
*       <I>-1.405844e-04</I>
*
*       <J>2.478371e-05</J>
*
*       <CPCOR>-9.570000e-08</CPCOR>
*
*       <CTCOR>3.250000e-06</CTCOR>
*
*       <CSLOPE>1.000000e+00</CSLOPE>
*
*    </Calibration>
*
*    <Calibration format='STRAIN0' id='Main Pressure'>
*
*       <SerialNum>10586018</SerialNum>
*
*       <CalDate>07-Mar-18</CalDate>
*
*       <PA0>-4.081764e-02</PA0>
*
*       <PA1>4.851884e-04</PA1>
*
*       <PA2>-3.511682e-12</PA2>
*
*       <PTCA0>5.252134e+05</PTCA0>
*
*       <PTCA1>1.795324e+00</PTCA1>
*
*       <PTCA2>-2.843535e-01</PTCA2>
*
*       <PTCB0>2.516687e+01</PTCB0>
*
*       <PTCB1>3.750000e-04</PTCB1>
*
*       <PTCB2>0.000000e+00</PTCB2>
*
*       <PTEMPA0>-5.378069e+01</PTEMPA0>
*
*       <PTEMPA1>5.366207e+01</PTEMPA1>
*
*       <PTEMPA2>4.872143e-02</PTEMPA2>
*
*       <POFFSET>5.000000e-01</POFFSET>
*
*       <PRANGE>1.600000e+02</PRANGE>
*
*    </Calibration>
*
*    <Calibration format='VOLT0' id='Volt 0'>
*
*       <OFFSET>-4.920000e-02</OFFSET>
*
*       <SLOPE>1.248122e+00</SLOPE>
*
*    </Calibration>
*
*    <Calibration format='VOLT0' id='Volt 1'>
*
*       <OFFSET>-4.784000e-02</OFFSET>
*
*       <SLOPE>1.248871e+00</SLOPE>
*
*    </Calibration>
*
*    <Calibration format='VOLT0' id='Volt 2'>
*
*       <OFFSET>-4.864632e-02</OFFSET>
*
*       <SLOPE>1.248714e+00</SLOPE>
*
*    </Calibration>
*
*    <Calibration format='VOLT0' id='Volt 3'>
*
*       <OFFSET>-4.743790e-02</OFFSET>
*
*       <SLOPE>1.248571e+00</SLOPE>
*
*    </Calibration>
*
*    <Calibration format='VOLT0' id='Volt 4'>
*
*       <OFFSET>-4.671263e-02</OFFSET>
*
*       <SLOPE>1.248951e+00</SLOPE>
*
*    </Calibration>
*
*    <Calibration format='VOLT0' id='Volt 5'>
*
*       <OFFSET>-4.871053e-02</OFFSET>
*
*       <SLOPE>1.249136e+00</SLOPE>
*
*    </Calibration>
*
*    <Calibration format='FREQ0' id='external frequency channel'>
*
*       <EXTFREQSF>1.000014e+00</EXTFREQSF>
*
*    </Calibration>
*
* </CalibrationCoefficients>
* <EventCounters DeviceType='SBE19plus' SerialNumber='01907809'>
*
*    <EventSummary numEvents='0'/>
*
* </EventCounters></InstrumentState>
* <Headers>
*
* cast   1 06 Dec 2018 15:38:22 samples 1 to 818, avg = 1, stop = mag switch
*
# nquan = 17
# nvalues = 626                         
# units = specified
# name 0 = depFM: Depth [fresh water, m]
# name 1 = tv290C: Temperature [ITS-90, deg C]
# name 2 = sbeox0Mg/L: Oxygen, SBE 43 [mg/l]
# name 3 = sbeox0PS: Oxygen, SBE 43 [% saturation]
# name 4 = c0uS/cm: Conductivity [uS/cm]
# name 5 = specc: Specific Conductance [uS/cm]
# name 6 = ph: pH
# name 7 = orp: Oxidation Reduction Potential [mV]
# name 8 = flECO-AFL: Fluorescence, WET Labs ECO-AFL/FL [mg/m^3]
# name 9 = turbWETntu0: Turbidity, WET Labs ECO [NTU]
# name 10 = sal00: Salinity, Practical [PSU]
# name 11 = dz/dtM: Descent Rate [m/s]
# name 12 = prdM: Pressure, Strain Gauge [db]
# name 13 = prdE: Pressure, Strain Gauge [psi]
# name 14 = scan: Scan Count
# name 15 = par/sat/log: PAR/Logarithmic, Satlantic
# name 16 = flag:  0.000e+00
# span 0 =     -0.567,      9.806       
# span 1 =     2.2541,     5.4726       
# span 2 =     2.6180,    13.4142       
# span 3 =     20.688,    104.358       
# span 4 =   0.798912, 115.320624       
# span 5 =      1.241,    190.611       
# span 6 =     -3.279,     16.504       
# span 7 = -1240.7455,  1240.2295       
# span 8 =    -0.3154,     4.4319       
# span 9 =    -0.3854,     7.3625       
# span 10 =     0.0002,     0.0862      
# span 11 =     -0.057,      0.321      
# span 12 =     -0.556,      9.616      
# span 13 =     -0.807,     13.947      
# span 14 =          1,        626      
# span 15 = 1.2390e-01, 1.2062e+03      
# span 16 = 0.0000e+00, 0.0000e+00      
# interval = seconds: 0.25
# start_time = Dec 06 2018 15:38:22 [Instrument's time stamp, header]
# bad_flag = -9.990e-29
# <Sensors count="9" >
#   <sensor Channel="1" >
#     <!-- Count, Temperature -->
#     <TemperatureSensor SensorID="58" >
#       <SerialNumber>7809</SerialNumber>
#       <CalibrationDate>09-Mar-18</CalibrationDate>
#       <A0>1.21093245e-003</A0>
#       <A1>2.84356597e-004</A1>
#       <A2>-1.94507398e-006</A2>
#       <A3>2.12806664e-007</A3>
#       <Slope>1.00000000</Slope>
#       <Offset>0.0000</Offset>
#     </TemperatureSensor>
#   </sensor>
#   <sensor Channel="2" >
#     <!-- Frequency 0, Conductivity -->
#     <ConductivitySensor SensorID="3" >
#       <SerialNumber>7809</SerialNumber>
#       <CalibrationDate>09-Mar-18</CalibrationDate>
#       <UseG_J>1</UseG_J>
#       <!-- Cell const and series R are applicable only for wide range sensors. -->
#       <SeriesR>0.0000</SeriesR>
#       <CellConst>2000.0000</CellConst>
#       <ConductivityType>0</ConductivityType>
#       <Coefficients equation="0" >
#         <A>0.00000000e+000</A>
#         <B>0.00000000e+000</B>
#         <C>0.00000000e+000</C>
#         <D>0.00000000e+000</D>
#         <M>0.0</M>
#         <CPcor>-9.57000000e-008</CPcor>
#       </Coefficients>
#       <Coefficients equation="1" >
#         <G>-1.00672082e+000</G>
#         <H>1.26906489e-001</H>
#         <I>-1.40584351e-004</I>
#         <J>2.47837121e-005</J>
#         <CPcor>-9.57000000e-008</CPcor>
#         <CTcor>3.2500e-006</CTcor>
#         <!-- WBOTC not applicable unless ConductivityType = 1. -->
#         <WBOTC>0.00000000e+000</WBOTC>
#       </Coefficients>
#       <Slope>1.00000000</Slope>
#       <Offset>0.00000</Offset>
#     </ConductivitySensor>
#   </sensor>
#   <sensor Channel="3" >
#     <!-- Count, Pressure, Strain Gauge -->
#     <PressureSensor SensorID="46" >
#       <SerialNumber>7809</SerialNumber>
#       <CalibrationDate>07-Mar-18</CalibrationDate>
#       <PA0>-4.08176359e-002</PA0>
#       <PA1>4.85188419e-004</PA1>
#       <PA2>-3.51168169e-012</PA2>
#       <PTEMPA0>-5.37806900e+001</PTEMPA0>
#       <PTEMPA1>5.36620721e+001</PTEMPA1>
#       <PTEMPA2>4.87214332e-002</PTEMPA2>
#       <PTCA0>5.25213435e+005</PTCA0>
#       <PTCA1>1.79532409e+000</PTCA1>
#       <PTCA2>-2.84353509e-001</PTCA2>
#       <PTCB0>2.51668750e+001</PTCB0>
#       <PTCB1>3.75000000e-004</PTCB1>
#       <PTCB2>0.00000000e+000</PTCB2>
#       <Offset>0.000000</Offset>
#     </PressureSensor>
#   </sensor>
#   <sensor Channel="4" >
#     <!-- A/D voltage 0, pH -->
#     <pH_Sensor SensorID="43" >
#       <SerialNumber>0363</SerialNumber>
#       <CalibrationDate>16-Mar-18</CalibrationDate>
#       <Slope>4.6194</Slope>
#       <Offset>2.5947</Offset>
#     </pH_Sensor>
#   </sensor>
#   <sensor Channel="5" >
#     <!-- A/D voltage 1, Oxidation Reduction Potential -->
#     <OxidationReductionPotentialSensor SensorID="41" >
#       <SerialNumber>0363</SerialNumber>
#       <CalibrationDate>16-Mar-18</CalibrationDate>
#       <B>2.499480</B>
#       <M>-0.496195</M>
#       <Offset>0.0</Offset>
#     </OxidationReductionPotentialSensor>
#   </sensor>
#   <sensor Channel="6" >
#     <!-- A/D voltage 2, Oxygen, SBE 43 -->
#     <OxygenSensor SensorID="38" >
#       <SerialNumber>0434</SerialNumber>
#       <CalibrationDate>13-Mar-18</CalibrationDate>
#       <Use2007Equation>1</Use2007Equation>
#       <CalibrationCoefficients equation="0" >
#         <!-- Coefficients for Owens-Millard equation. -->
#         <Boc>0.0000</Boc>
#         <Soc>0.0000e+000</Soc>
#         <offset>0.0000</offset>
#         <Pcor>0.00e+000</Pcor>
#         <Tcor>0.0000</Tcor>
#         <Tau>0.0</Tau>
#       </CalibrationCoefficients>
#       <CalibrationCoefficients equation="1" >
#         <!-- Coefficients for Sea-Bird equation - SBE calibration in 2007 and later. -->
#         <Soc>4.5718e-001</Soc>
#         <offset>-0.6113</offset>
#         <A>-4.0649e-003</A>
#         <B> 2.0945e-004</B>
#         <C>-3.3182e-006</C>
#         <D0> 2.5826e+000</D0>
#         <D1> 1.92634e-004</D1>
#         <D2>-4.64803e-002</D2>
#         <E> 3.6000e-002</E>
#         <Tau20> 1.2200</Tau20>
#         <H1>-3.3000e-002</H1>
#         <H2> 5.0000e+003</H2>
#         <H3> 1.4500e+003</H3>
#       </CalibrationCoefficients>
#     </OxygenSensor>
#   </sensor>
#   <sensor Channel="7" >
#     <!-- A/D voltage 3, PAR/Logarithmic, Satlantic -->
#     <PARLog_SatlanticSensor SensorID="76" >
#       <SerialNumber>1122</SerialNumber>
#       <CalibrationDate>22-Jun-2017</CalibrationDate>
#       <a0>9.6090e-001</a0>
#       <a1>8.0780e-001</a1>
#       <Im>1.3589e+000</Im>
#       <Multiplier>1.0000e+000</Multiplier>
#     </PARLog_SatlanticSensor>
#   </sensor>
#   <sensor Channel="8" >
#     <!-- A/D voltage 4, Fluorometer, WET Labs ECO-AFL/FL -->
#     <FluoroWetlabECO_AFL_FL_Sensor SensorID="20" >
#       <SerialNumber>FLNTURT-2496</SerialNumber>
#       <CalibrationDate>25-Jan-2017</CalibrationDate>
#       <ScaleFactor>5.30000000e+001</ScaleFactor>
#       <!-- Dark output -->
#       <Vblank>0.0560</Vblank>
#     </FluoroWetlabECO_AFL_FL_Sensor>
#   </sensor>
#   <sensor Channel="9" >
#     <!-- A/D voltage 5, Turbidity Meter, WET Labs, ECO-NTU -->
#     <TurbidityMeter SensorID="67" >
#       <SerialNumber>FLNTURT-2496</SerialNumber>
#       <CalibrationDate>25-Jan-2017</CalibrationDate>
#       <ScaleFactor>176.000000</ScaleFactor>
#       <!-- Dark output -->
#       <DarkVoltage>0.072000</DarkVoltage>
#     </TurbidityMeter>
#   </sensor>
# </Sensors>
# datcnv_date = Dec 06 2018 16:38:09, 7.26.7.114 [datcnv_vars = 16]
# datcnv_in = C:\DATA\120618_fcr50.hex C:\DATA\SBE19plusV2_7809.xmlcon
# datcnv_skipover = 0
# datcnv_ox_hysteresis_correction = yes
# datcnv_ox_tau_correction = yes
# filter_date = Dec 06 2018 16:39:23, 7.26.7.114
# filter_in = C:\DATA\120618_fcr50.cnv
# filter_low_pass_tc_A = 0.030
# filter_low_pass_tc_B = 0.150
# filter_low_pass_A_vars = tv290C c0uS/cm par/sat/log
# filter_low_pass_B_vars = prdM prdE
# alignctd_date = Dec 06 2018 16:39:44, 7.26.7.114
# alignctd_in = C:\DATA\120618_fcr50.cnv
# alignctd_adv = tv290C 0.500, sbeox0Mg/L 3.000, sbeox0PS 3.000                                                                                                                                                                      
# file_type = ascii
*END*
     -0.567     2.2716    13.3973     97.600   1.179748      2.111      6.241 -1240.7455    -0.2507    -0.2377     0.0004      0.000     -0.556     -0.806          1 1.2062e+03 0.0000e+00
     -0.567     2.2727    13.3968     97.598   1.223367      2.315     -0.165 -1240.7455    -0.2102    -0.1706     0.0005     -0.000     -0.556     -0.807          2 1.1054e+03 0.0000e+00
     -0.567     2.2738    13.4030     97.637   1.138827      2.008      7.181 -1240.7455    -0.2426    -0.3049     0.0004     -0.000     -0.556     -0.807          3 1.1142e+03 0.0000e+00
     -0.567     2.2739    13.4140     97.709   1.433003      2.673     13.642  -734.8212    -0.2264    -0.0900     0.0006     -0.000     -0.556     -0.807          4 8.9622e+02 0.0000e+00
     -0.567     2.2739    13.4142     97.707   1.449458      2.673     15.939  1240.2295    -0.2102    -0.1169     0.0006     -0.000     -0.556     -0.807          5 2.4564e+02 0.0000e+00
     -0.567     2.2744    13.4021     97.615   1.444053      2.571      9.404   921.0550    -0.2224    -0.0900     0.0006     -0.000     -0.556     -0.807          6 7.3007e+01 0.0000e+00
     -0.567     2.2755    13.3758     97.617   1.232463      2.418     -0.176   920.8278    -0.2385    -0.0497     0.0006     -0.000     -0.556     -0.807          7 2.3482e+02 0.0000e+00
     -0.567     2.2753    13.1191     97.434   0.913329      1.446     -3.278   920.6386    -0.2345    -0.1303     0.0002     -0.000     -0.556     -0.807          8 5.7663e+01 0.0000e+00
     -0.567     2.2764    12.8517     97.220   1.071370      2.213     -2.195   164.3264    -0.2264    -0.0632     0.0005     -0.000     -0.556     -0.807          9 3.8422e+02 0.0000e+00
     -0.566     2.2750    12.6885     97.119   0.798912      1.241      0.026   915.1114    -0.2021    -0.1572     0.0002      0.000     -0.555     -0.806         10 1.0027e+03 0.0000e+00
     -0.566     2.2759    12.5618     96.990   1.074747      2.110     -3.278   920.2978    -0.2628    -0.1437     0.0005      0.000     -0.555     -0.806         11 3.4016e+02 0.0000e+00
     -0.566     2.2732    12.4773     96.950   1.290668      2.315     -3.278   920.2978    -0.2224    -0.0900     0.0005      0.001     -0.555     -0.805         12 6.5298e+01 0.0000e+00
     -0.565     2.2760    12.4223     96.960   0.974335      1.804     -3.278   920.4114    -0.2062     0.0577     0.0003      0.001     -0.555     -0.805         13 1.3054e+02 0.0000e+00
     -0.566     2.2650    12.3900     97.007   1.172326      2.111     -3.278   920.2978    -0.2385    -0.0766     0.0005      0.001     -0.555     -0.805         14 9.6115e+01 0.0000e+00
     -0.566     2.2765    12.3691     97.045   1.162708      2.213     -3.278   920.4114    -0.2305    -0.0229     0.0005      0.001     -0.555     -0.805         15 3.0236e+02 0.0000e+00
     -0.565     2.2541    12.3637     97.136   1.282395      2.213     -3.278   920.2978    -0.2547    -0.0900     0.0005      0.001     -0.554     -0.804         16 1.4598e+02 0.0000e+00
     -0.565     2.3646    12.3931     97.403   1.141815      2.316     -3.279   920.0707    -0.2507    -0.1974     0.0005      0.001     -0.552     -0.800         17 1.0435e+02 0.0000e+00
     -0.563     2.9756    12.4290     97.701   1.604143      2.572     -3.279   920.1464    -0.2345    -0.2512     0.0006      0.001     -0.534     -0.774         18 1.8024e+02 0.0000e+00
     -0.501     3.6732    12.4794     98.139   8.584514     15.529     15.015  1240.2295    -0.1981    -0.2780     0.0057      0.018     -0.480     -0.696         19 3.9368e+02 0.0000e+00
     -0.408     4.1184    12.5411     98.658  19.854145     35.724     16.504   110.0391    -0.2345    -0.3854     0.0147      0.054     -0.387     -0.561         20 4.9158e+02 0.0000e+00
     -0.269     4.4521    12.6141     99.237  25.117304     44.070     16.480   140.3249    -0.2466    -0.0095     0.0188      0.117     -0.274     -0.399         21 5.4061e+02 0.0000e+00
     -0.166     4.6953    12.7992    100.657  24.496963     41.860     16.465   159.1778    -0.3154    -0.1034     0.0181      0.187     -0.178     -0.259         22 4.6446e+02 0.0000e+00
     -0.114     4.8701    13.0381    102.523  23.826954     40.581     16.453   171.3678    -0.2992    -0.0363     0.0178      0.245     -0.110     -0.160         23 2.4174e+02 0.0000e+00
     -0.053     4.9892    13.1933    103.734  23.431342     39.355     16.445   174.2071    -0.2992    -0.0229     0.0174      0.289     -0.051     -0.074         24 1.7352e+02 0.0000e+00
