* Sea-Bird SBE19plus  Data File:
* FileName = C:\R\Reservoirs\Data\DataNotYetUploadedToEDI\Raw_CTD\RawDownloads\121624_fcr50_S7809_0004.hex
* Software version 2.8.0.119
* Temperature SN = 7809
* Conductivity SN = 7809
* System UpLoad Time = Dec 17 2024 18:09:05
* <ApplicationData>
* <Seaterm232>
* <SoftwareVersion>2.8.0.119</SoftwareVersion>
* <BuildDate>07-Nov-2018</BuildDate>
* </Seaterm232>
* </ApplicationData>
* <InstrumentState>
* <HardwareData DeviceType='SBE19plus' SerialNumber='01907809'>
*
*    <Manufacturer>Sea-Bird Electronics, Inc.</Manufacturer>
*
*    <FirmwareVersion>3.1.8</FirmwareVersion>
*
*    <FirmwareDate>Mar  9 2016 16:22:29</FirmwareDate>
*
*    <CommandSetVersion>1.4</CommandSetVersion>
*
*    <PCBAssembly PCBSerialNum='120721' AssemblyNum='41054J'/>
*
*    <PCBAssembly PCBSerialNum='120715' AssemblyNum='41967A'/>
*
*    <PCBAssembly PCBSerialNum='116699' AssemblyNum='41606'/>
*
*    <PCBAssembly PCBSerialNum='120719' AssemblyNum='41059D'/>
*
*    <MfgDate>28-Apr-2017</MfgDate>
*
*    <InternalSensors>
*
*       <Sensor id='Main Temperature'>
*
*          <type>temperature0</type>
*
*          <SerialNumber>01907809</SerialNumber>
*
*       </Sensor>
*
*       <Sensor id='Main Conductivity'>
*
*          <type>conductivity-0</type>
*
*          <SerialNumber>01907809</SerialNumber>
*
*       </Sensor>
*
*       <Sensor id='Main Pressure'>
*
*          <type>strain-0</type>
*
*          <SerialNumber>10586018</SerialNumber>
*
*       </Sensor>
*
*    </InternalSensors>
*
*    <ExternalSensors>
*
*       <Sensor id='volt 0'>
*
*          <type>pH</type>
*
*          <SerialNumber>27-0363</SerialNumber>
*
*       </Sensor>
*
*       <Sensor id='volt 1'>
*
*          <type>ORP</type>
*
*          <SerialNumber>27-0363</SerialNumber>
*
*       </Sensor>
*
*       <Sensor id='volt 2'>
*
*          <type>OXY</type>
*
*          <SerialNumber>43-0434</SerialNumber>
*
*       </Sensor>
*
*       <Sensor id='volt 3'>
*
*          <type>PAR</type>
*
*          <SerialNumber>1122</SerialNumber>
*
*       </Sensor>
*
*       <Sensor id='volt 4'>
*
*          <type>ECO AFL/FL</type>
*
*          <SerialNumber>FLNTURT-2496</SerialNumber>
*
*       </Sensor>
*
*       <Sensor id='volt 5'>
*
*          <type>ECO-NTU</type>
*
*          <SerialNumber>FLNTURT-2496</SerialNumber>
*
*       </Sensor>
*
*       <Sensor id='serial'>
*
*          <type>not assigned</type>
*
*          <SerialNumber>not assigned</SerialNumber>
*
*       </Sensor>
*
*    </ExternalSensors>
*
* </HardwareData>
* <StatusData DeviceType='SBE19plus' SerialNumber='01907809'>
*
*    <DateTime>2024-12-17T19:05:29</DateTime>
*
*    <LoggingState>not logging</LoggingState>
*
*    <EventSummary numEvents='0'/>
*
*    <Power>
*
*       <vMain>13.4</vMain>
*
*       <vLith>8.1</vLith>
*
*       <iMain>63.1</iMain>
*
*       <iPump>40.4</iPump>
*
*       <iExt01>19.6</iExt01>
*
*       <iExt2345>36.4</iExt2345>
*
*    </Power>
*
*    <MemorySummary>
*
*       <Bytes>167670</Bytes>
*
*       <Samples>7290</Samples>
*
*       <SamplesFree>2853498</SamplesFree>
*
*       <SampleLength>23</SampleLength>
*
*       <Profiles>4</Profiles>
*
*    </MemorySummary>
*
* </StatusData>
* <ConfigurationData DeviceType='SBE19plus' SerialNumber='01907809'>
*
*    <ProfileMode>
*
*       <ScansToAverage>1</ScansToAverage>
*
*       <MinimumCondFreq>0</MinimumCondFreq>
*
*       <PumpDelay>45</PumpDelay>
*
*       <AutoRun>no</AutoRun>
*
*       <IgnoreSwitch>no</IgnoreSwitch>
*
*    </ProfileMode>
*
*    <Battery>
*
*       <Type>alkaline</Type>
*
*       <CutOff>7.5</CutOff>
*
*    </Battery>
*
*    <DataChannels>
*
*       <ExtVolt0>yes</ExtVolt0>
*
*       <ExtVolt1>yes</ExtVolt1>
*
*       <ExtVolt2>yes</ExtVolt2>
*
*       <ExtVolt3>yes</ExtVolt3>
*
*       <ExtVolt4>yes</ExtVolt4>
*
*       <ExtVolt5>yes</ExtVolt5>
*
*       <SBE38>no</SBE38>
*
*       <WETLABS>no</WETLABS>
*
*       <OPTODE>no</OPTODE>
*
*       <SBE63>no</SBE63>
*
*       <SeaFET>no</SeaFET>
*
*       <GTD>no</GTD>
*
*    </DataChannels>
*
*    <EchoCharacters>yes</EchoCharacters>
*
*    <OutputExecutedTag>yes</OutputExecutedTag>
*
*    <OutputFormat>raw HEX</OutputFormat>
*
* </ConfigurationData>
* <CalibrationCoefficients DeviceType='SBE19plus' SerialNumber='01907809'>
*
*    <Calibration format='TEMP1' id='Main Temperature'>
*
*       <SerialNum>01907809</SerialNum>
*
*       <CalDate>31-Jan-23</CalDate>
*
*       <TA0>1.218232e-03</TA0>
*
*       <TA1>2.815090e-04</TA1>
*
*       <TA2>-1.578887e-06</TA2>
*
*       <TA3>1.972343e-07</TA3>
*
*       <TOFFSET>0.000000e+00</TOFFSET>
*
*    </Calibration>
*
*    <Calibration format='WBCOND0' id='Main Conductivity'>
*
*       <SerialNum>01907809</SerialNum>
*
*       <CalDate>31-Jan-23</CalDate>
*
*       <G>-1.005652e+00</G>
*
*       <H>1.267963e-01</H>
*
*       <I>-1.561708e-04</I>
*
*       <J>2.645944e-05</J>
*
*       <CPCOR>-9.570000e-08</CPCOR>
*
*       <CTCOR>3.250000e-06</CTCOR>
*
*       <CSLOPE>1.000000e+00</CSLOPE>
*
*    </Calibration>
*
*    <Calibration format='STRAIN0' id='Main Pressure'>
*
*       <SerialNum>10586018</SerialNum>
*
*       <CalDate>20-Jan-23</CalDate>
*
*       <PA0>4.416439e-02</PA0>
*
*       <PA1>4.850502e-04</PA1>
*
*       <PA2>-3.090426e-12</PA2>
*
*       <PTCA0>5.254757e+05</PTCA0>
*
*       <PTCA1>1.050255e+01</PTCA1>
*
*       <PTCA2>-2.922435e-01</PTCA2>
*
*       <PTCB0>2.516687e+01</PTCB0>
*
*       <PTCB1>3.750000e-04</PTCB1>
*
*       <PTCB2>0.000000e+00</PTCB2>
*
*       <PTEMPA0>-5.470820e+01</PTEMPA0>
*
*       <PTEMPA1>5.485421e+01</PTEMPA1>
*
*       <PTEMPA2>-3.446578e-01</PTEMPA2>
*
*       <POFFSET>8.500000e-01</POFFSET>
*
*       <PRANGE>1.600000e+02</PRANGE>
*
*    </Calibration>
*
*    <Calibration format='VOLT0' id='Volt 0'>
*
*       <OFFSET>-4.920000e-02</OFFSET>
*
*       <SLOPE>1.248122e+00</SLOPE>
*
*    </Calibration>
*
*    <Calibration format='VOLT0' id='Volt 1'>
*
*       <OFFSET>-4.784000e-02</OFFSET>
*
*       <SLOPE>1.248871e+00</SLOPE>
*
*    </Calibration>
*
*    <Calibration format='VOLT0' id='Volt 2'>
*
*       <OFFSET>-4.864632e-02</OFFSET>
*
*       <SLOPE>1.248714e+00</SLOPE>
*
*    </Calibration>
*
*    <Calibration format='VOLT0' id='Volt 3'>
*
*       <OFFSET>-4.743790e-02</OFFSET>
*
*       <SLOPE>1.248571e+00</SLOPE>
*
*    </Calibration>
*
*    <Calibration format='VOLT0' id='Volt 4'>
*
*       <OFFSET>-4.671263e-02</OFFSET>
*
*       <SLOPE>1.248951e+00</SLOPE>
*
*    </Calibration>
*
*    <Calibration format='VOLT0' id='Volt 5'>
*
*       <OFFSET>-4.871053e-02</OFFSET>
*
*       <SLOPE>1.249136e+00</SLOPE>
*
*    </Calibration>
*
*    <Calibration format='FREQ0' id='external frequency channel'>
*
*       <EXTFREQSF>1.000014e+00</EXTFREQSF>
*
*    </Calibration>
*
* </CalibrationCoefficients>
* <EventCounters DeviceType='SBE19plus' SerialNumber='01907809'>
*
*    <EventSummary numEvents='0'/>
*
* </EventCounters></InstrumentState>
* <Headers>
*
* cast   4 17 Dec 2024 12:15:54 samples 6484 to 7290, avg = 1, stop = mag switch
*
# nquan = 15
# nvalues = 807                         
# units = specified
# name 0 = depFM: Depth [fresh water, m]
# name 1 = dz/dtM: Descent Rate [m/s]
# name 2 = sbeox0Mg/L: Oxygen, SBE 43 [mg/l]
# name 3 = sbeox0PS: Oxygen, SBE 43 [% saturation]
# name 4 = specc: Specific Conductance [uS/cm]
# name 5 = c0uS/cm: Conductivity [uS/cm]
# name 6 = flECO-AFL: Fluorescence, WET Labs ECO-AFL/FL [mg/m^3]
# name 7 = ph: pH
# name 8 = orp: Oxidation Reduction Potential [mV]
# name 9 = par/sat/log: PAR/Logarithmic, Satlantic
# name 10 = turbWETntu0: Turbidity, WET Labs ECO [NTU]
# name 11 = prdM: Pressure, Strain Gauge [db]
# name 12 = prdE: Pressure, Strain Gauge [psi]
# name 13 = tv290C: Temperature [ITS-90, deg C]
# name 14 = flag:  0.000e+00
# span 0 =     -0.418,      3.414       
# span 1 =     -0.444,      0.307       
# span 2 =     7.1361,    11.8497       
# span 3 =     60.802,     98.840       
# span 4 =      3.084,    127.219       
# span 5 =   2.390026,  84.604149       
# span 6 =    -0.1041,    59.9572       
# span 7 =      6.541,     11.291       
# span 8 = -1240.3953,   202.2204       
# span 9 = 1.7923e+01, 5.9948e+02       
# span 10 =    -0.2481,   636.1268      
# span 11 =     -0.410,      3.348      
# span 12 =     -0.595,      4.856      
# span 13 =     7.4008,    13.8339      
# span 14 = 0.0000e+00, 0.0000e+00      
# interval = seconds: 0.25
# start_time = Dec 17 2024 12:15:54 [Instrument's time stamp, header]
# bad_flag = -9.990e-29
# <Sensors count="9" >
#   <sensor Channel="1" >
#     <!-- Count, Temperature -->
#     <TemperatureSensor SensorID="58" >
#       <SerialNumber>7809</SerialNumber>
#       <CalibrationDate>31-Jan-23</CalibrationDate>
#       <A0>1.21823180e-003</A0>
#       <A1>2.81508993e-004</A1>
#       <A2>-1.57888696e-006</A2>
#       <A3>1.97234302e-007</A3>
#       <Slope>1.00000000</Slope>
#       <Offset>0.0000</Offset>
#     </TemperatureSensor>
#   </sensor>
#   <sensor Channel="2" >
#     <!-- Frequency 0, Conductivity -->
#     <ConductivitySensor SensorID="3" >
#       <SerialNumber>7809</SerialNumber>
#       <CalibrationDate>31-Jan-23</CalibrationDate>
#       <UseG_J>1</UseG_J>
#       <!-- Cell const and series R are applicable only for wide range sensors. -->
#       <SeriesR>0.0000</SeriesR>
#       <CellConst>2000.0000</CellConst>
#       <ConductivityType>0</ConductivityType>
#       <Coefficients equation="0" >
#         <A>0.00000000e+000</A>
#         <B>0.00000000e+000</B>
#         <C>0.00000000e+000</C>
#         <D>0.00000000e+000</D>
#         <M>0.0</M>
#         <CPcor>-9.57000000e-008</CPcor>
#       </Coefficients>
#       <Coefficients equation="1" >
#         <G>-1.00565232e+000</G>
#         <H>1.26796307e-001</H>
#         <I>-1.56170788e-004</I>
#         <J>2.64594368e-005</J>
#         <CPcor>-9.57000000e-008</CPcor>
#         <CTcor>3.2500e-006</CTcor>
#         <!-- WBOTC not applicable unless ConductivityType = 1. -->
#         <WBOTC>0.00000000e+000</WBOTC>
#       </Coefficients>
#       <Slope>1.00000000</Slope>
#       <Offset>0.00000</Offset>
#     </ConductivitySensor>
#   </sensor>
#   <sensor Channel="3" >
#     <!-- Count, Pressure, Strain Gauge -->
#     <PressureSensor SensorID="46" >
#       <SerialNumber>7809</SerialNumber>
#       <CalibrationDate>20-Jan-23</CalibrationDate>
#       <PA0>4.41643944e-002</PA0>
#       <PA1>4.85050239e-004</PA1>
#       <PA2>-3.09042623e-012</PA2>
#       <PTEMPA0>-5.47081996e+001</PTEMPA0>
#       <PTEMPA1>5.48542136e+001</PTEMPA1>
#       <PTEMPA2>-3.44657813e-001</PTEMPA2>
#       <PTCA0>5.25475731e+005</PTCA0>
#       <PTCA1>1.05025484e+001</PTCA1>
#       <PTCA2>-2.92243463e-001</PTCA2>
#       <PTCB0>2.51668750e+001</PTCB0>
#       <PTCB1>3.75000000e-004</PTCB1>
#       <PTCB2>0.00000000e+000</PTCB2>
#       <Offset>0.000000</Offset>
#     </PressureSensor>
#   </sensor>
#   <sensor Channel="4" >
#     <!-- A/D voltage 0, Oxygen, SBE 43 -->
#     <OxygenSensor SensorID="38" >
#       <SerialNumber>0434</SerialNumber>
#       <CalibrationDate>18-Feb-23</CalibrationDate>
#       <Use2007Equation>1</Use2007Equation>
#       <CalibrationCoefficients equation="0" >
#         <!-- Coefficients for Owens-Millard equation. -->
#         <Boc>0.0000</Boc>
#         <Soc>0.0000e+000</Soc>
#         <offset>0.0000</offset>
#         <Pcor>0.00e+000</Pcor>
#         <Tcor>0.0000</Tcor>
#         <Tau>0.0</Tau>
#       </CalibrationCoefficients>
#       <CalibrationCoefficients equation="1" >
#         <!-- Coefficients for Sea-Bird equation - SBE calibration in 2007 and later. -->
#         <Soc>5.1878e-001</Soc>
#         <offset>-0.5046</offset>
#         <A>-4.2788e-003</A>
#         <B> 1.5372e-004</B>
#         <C>-2.1853e-006</C>
#         <D0> 2.5826e+000</D0>
#         <D1> 1.92634e-004</D1>
#         <D2>-4.64803e-002</D2>
#         <E> 3.6000e-002</E>
#         <Tau20> 0.9900</Tau20>
#         <H1>-3.3000e-002</H1>
#         <H2> 5.0000e+003</H2>
#         <H3> 1.4500e+003</H3>
#       </CalibrationCoefficients>
#     </OxygenSensor>
#   </sensor>
#   <sensor Channel="5" >
#     <!-- A/D voltage 1, PAR/Logarithmic, Satlantic -->
#     <PARLog_SatlanticSensor SensorID="76" >
#       <SerialNumber>1122</SerialNumber>
#       <CalibrationDate>08-Sep-2021</CalibrationDate>
#       <a0>9.6751e-001</a0>
#       <a1>8.0992e-001</a1>
#       <Im>1.3589e+000</Im>
#       <Multiplier>1.0000e+000</Multiplier>
#     </PARLog_SatlanticSensor>
#   </sensor>
#   <sensor Channel="6" >
#     <!-- A/D voltage 2, pH -->
#     <pH_Sensor SensorID="43" >
#       <SerialNumber>0363</SerialNumber>
#       <CalibrationDate>28-Feb-23</CalibrationDate>
#       <Slope>4.7364</Slope>
#       <Offset>2.5433</Offset>
#     </pH_Sensor>
#   </sensor>
#   <sensor Channel="7" >
#     <!-- A/D voltage 3, Oxidation Reduction Potential -->
#     <OxidationReductionPotentialSensor SensorID="41" >
#       <SerialNumber>0363</SerialNumber>
#       <CalibrationDate>28-Feb-23</CalibrationDate>
#       <B>2.499480</B>
#       <M>-0.496195</M>
#       <Offset>0.0</Offset>
#     </OxidationReductionPotentialSensor>
#   </sensor>
#   <sensor Channel="8" >
#     <!-- A/D voltage 4, Fluorometer, WET Labs ECO-AFL/FL -->
#     <FluoroWetlabECO_AFL_FL_Sensor SensorID="20" >
#       <SerialNumber>FLNTURT-2496</SerialNumber>
#       <CalibrationDate>02-Sep-2021</CalibrationDate>
#       <ScaleFactor>4.80000000e+001</ScaleFactor>
#       <!-- Dark output -->
#       <Vblank>0.0550</Vblank>
#     </FluoroWetlabECO_AFL_FL_Sensor>
#   </sensor>
#   <sensor Channel="9" >
#     <!-- A/D voltage 5, Turbidity Meter, WET Labs, ECO-NTU -->
#     <TurbidityMeter SensorID="67" >
#       <SerialNumber>FLNTURT--2496</SerialNumber>
#       <CalibrationDate>02-Sep-2021</CalibrationDate>
#       <ScaleFactor>197.000000</ScaleFactor>
#       <!-- Dark output -->
#       <DarkVoltage>0.070000</DarkVoltage>
#     </TurbidityMeter>
#   </sensor>
# </Sensors>
# datcnv_date = Dec 17 2024 18:14:09, 7.26.7.129 [datcnv_vars = 14]
# datcnv_in = C:\R\Reservoirs\Data\DataNotYetUploadedToEDI\Raw_CTD\RawDownloads\121724_ccr90_S7809004.hex C:\R\Reservoirs\Data\DataNotYetUploadedToEDI\Raw_CTD\RawDownloads\SBE19plusV2_7809_start20230701.xmlcon
# datcnv_skipover = 0
# datcnv_ox_hysteresis_correction = yes
# datcnv_ox_tau_correction = yes
# filter_date = Dec 17 2024 18:14:46, 7.26.7.129
# filter_in = C:\R\Reservoirs\Data\DataNotYetUploadedToEDI\Raw_CTD\RawDownloads\121724_ccr90_S7809004.cnv
# filter_low_pass_tc_A = 0.030
# filter_low_pass_tc_B = 0.150
# filter_low_pass_A_vars = sbeox0Mg/L prdM prdE tv290C
# filter_low_pass_B_vars = depFM dz/dtM sbeox0PS specc c0uS/cm flECO-AFL ph orp par/sat/log turbWETntu0
# alignctd_date = Dec 17 2024 18:15:25, 7.26.7.129
# alignctd_in = C:\R\Reservoirs\Data\DataNotYetUploadedToEDI\Raw_CTD\RawDownloads\121724_ccr90_S7809004.cnv
# alignctd_adv = dz/dtM 1.000, sbeox0PS 1.000, specc 1.000, c0uS/cm 1.000, flECO-AFL 1.000, ph 1.000, orp 1.000, turbWETntu0 1.000                                                                                                   
# file_type = ascii
*END*
     -0.418      0.006     9.7622     92.866      3.084   2.390026    -0.0653     11.291  -999.6305 4.4158e+02     1.1154     -0.410     -0.595    13.8132 0.0000e+00
     -0.417      0.016     9.7692     91.365      3.952   3.032021    -0.0861      9.908 -1153.9365 4.5741e+02     1.0272     -0.409     -0.593    13.8156 0.0000e+00
     -0.417      0.024     9.7614     89.385      4.732   3.557637    -0.0862      8.451 -1232.8514 4.9047e+02     1.0526     -0.409     -0.593    13.8296 0.0000e+00
     -0.414      0.023     9.7296     87.018      4.678   3.423844     0.1092      7.517 -1240.0022 5.2298e+02     1.7299     -0.409     -0.593    13.8149 0.0000e+00
     -0.399      0.018     9.6252     84.446      4.462   3.188056     0.4780      7.013 -1240.3953 5.4094e+02     2.8974     -0.399     -0.578    13.8339 0.0000e+00
     -0.374      0.013     9.4925     81.955      5.145   3.620780     0.6700      6.748 -1237.6045 5.4462e+02     3.4858     -0.358     -0.519    13.7143 0.0000e+00
     -0.369      0.007     9.4824     79.785     12.832   8.909222     0.6822      6.615 -1206.2596 5.3988e+02     3.6188     -0.344     -0.499    12.7652 0.0000e+00
     -0.390      0.009     9.5320     78.078     37.123  25.617797     0.7171      6.557  -861.4061 5.3498e+02     4.1632     -0.397     -0.575    11.3329 0.0000e+00
     -0.399      0.031     9.4034     76.894     75.238  51.610304     0.7590      6.541  -228.0603 5.3660e+02     5.0126     -0.399     -0.578    10.5570 0.0000e+00
     -0.396      0.076     9.1707     76.303    107.165  72.990870     0.7641      6.556   118.4643 5.4125e+02     5.4168     -0.376     -0.546    10.3109 0.0000e+00
     -0.395      0.139     8.9998     76.207    119.667  80.871793     0.7618      6.590   149.2430 5.3776e+02     5.3611     -0.405     -0.587     9.9352 0.0000e+00
     -0.360      0.204     8.8681     76.270    121.613  81.567211     0.8153      6.630   150.0190 5.3088e+02     4.8516     -0.377     -0.546     9.6402 0.0000e+00
     -0.275      0.258     8.7720     76.418    122.575  81.716447     0.9110      6.670   149.0129 5.1195e+02     3.9360     -0.272     -0.396     9.4340 0.0000e+00
     -0.171      0.295     8.7689     76.709    123.407  81.912533     0.9614      6.710   148.8653 4.5968e+02     3.4465     -0.161     -0.234     9.0965 0.0000e+00
     -0.078      0.307     8.8560     77.136    124.123  82.156999     0.9755      6.747   149.0079 3.9380e+02     3.4073     -0.072     -0.105     8.7791 0.0000e+00
      0.005      0.286     8.9125     77.690    124.648  82.382514     1.0397      6.782   148.9301 3.4380e+02     3.2911      0.005      0.008     8.5146 0.0000e+00
      0.081      0.238     8.9718     78.354    124.864  82.476752     1.1387      6.817   149.6465 2.9505e+02     3.0665      0.085      0.123     8.3116 0.0000e+00
      0.141      0.181     9.0395     79.152    124.869  82.469590     1.1816      6.848   151.0449 2.4393e+02     2.9119      0.148      0.214     8.1694 0.0000e+00
      0.180      0.127     9.1083     80.104    124.976  82.550308     1.1759      6.875   151.4699 2.1649e+02     2.8907      0.184      0.268     8.0759 0.0000e+00
      0.196      0.080     9.1874     81.188    125.530  82.943921     1.1524      6.900   151.2575 2.0176e+02     3.0496      0.197      0.286     8.0351 0.0000e+00
      0.198      0.041     9.2644     82.265    126.466  83.603512     1.1139      6.921   151.1432 1.9038e+02     3.3297      0.196      0.284     8.0203 0.0000e+00
      0.196      0.015     9.3618     83.261    126.969  83.974420     1.0936      6.939   150.9492 1.8489e+02     3.4426      0.191      0.277     8.0177 0.0000e+00
      0.195      0.000     9.4691     84.209    126.579  83.739629     1.0903      6.958   150.7177 1.7593e+02     3.3561      0.190      0.275     8.0224 0.0000e+00
      0.195     -0.007     9.6064     85.093    125.814  83.245215     1.0735      6.979   150.2370 1.7092e+02     3.2742      0.191      0.277     8.0325 0.0000e+00
      0.194     -0.010     9.7315     85.836    125.282  82.893910     1.0485      6.999   149.6971 1.7184e+02     3.2385      0.191      0.276     8.0524 0.0000e+00
