* Sea-Bird SBE19plus  Data File:
* FileName = C:\DATA\SBE19plus_01907809_2019_06_13_0002.hex
* Software version 2.8.0.119 SB_Terminal.dll
* Temperature SN = 7809
* Conductivity SN = 7809
* System UpLoad Time = Jun 13 2019 13:44:21
* <ApplicationData>
* <Seaterm232>
* <SoftwareVersion>2.8.0.119</SoftwareVersion>
* <BuildDate>07-Nov-2018</BuildDate>
* </Seaterm232>
* </ApplicationData>
* cast   2 13 Jun 2019 13:16:19 samples 1220 to 2311, avg = 1, stop = mag switch
# nquan = 16
# nvalues = 954                         
# units = specified
# name 0 = depFM: Depth [fresh water, m]
# name 1 = dz/dtM: Descent Rate [m/s]
# name 2 = sbeox0Mg/L: Oxygen, SBE 43 [mg/l]
# name 3 = sbeox0PS: Oxygen, SBE 43 [% saturation]
# name 4 = specc: Specific Conductance [uS/cm]
# name 5 = c0uS/cm: Conductivity [uS/cm]
# name 6 = flECO-AFL: Fluorescence, WET Labs ECO-AFL/FL [mg/m^3]
# name 7 = ph: pH
# name 8 = orp: Oxidation Reduction Potential [mV]
# name 9 = par/sat/log: PAR/Logarithmic, Satlantic
# name 10 = turbWETntu0: Turbidity, WET Labs ECO [NTU]
# name 11 = prdM: Pressure, Strain Gauge [db]
# name 12 = prdE: Pressure, Strain Gauge [psi]
# name 13 = tv290C: Temperature [ITS-90, deg C]
# name 14 = density00: Density [density, kg/m^3]
# name 15 = flag:  0.000e+00
# span 0 =     -0.662,      9.637       
# span 1 =      0.000,      0.164       
# span 2 =     3.4468,    12.4055       
# span 3 =     31.465,    130.777       
# span 4 =      0.410,     35.842       
# span 5 =   0.395031,  31.602619       
# span 6 =    -0.1350,     4.3071       
# span 7 =      7.317,     10.372       
# span 8 =    -0.8053,  1046.4040       
# span 9 = 1.2358e-01, 3.4365e+02       
# span 10 =    -0.5482,    64.4128      
# span 11 =     -0.650,      9.452      
# span 12 =     -0.942,     13.708      
# span 13 =    10.0969,    23.1506      
# span 14 =   997.5096,   999.7524      
# span 15 = 0.0000e+00, 0.0000e+00      
# interval = seconds: 0.25
# start_time = Jun 13 2019 13:16:19 [Instrument's time stamp, header]
# bad_flag = -9.990e-29
# <Sensors count="9" >
#   <sensor Channel="1" >
#     <!-- Count, Temperature -->
#     <TemperatureSensor SensorID="58" >
#       <SerialNumber>7809</SerialNumber>
#       <CalibrationDate>24-Mar-19</CalibrationDate>
#       <A0>1.21792325e-003</A0>
#       <A1>2.81669265e-004</A1>
#       <A2>-1.60333336e-006</A2>
#       <A3>1.98414625e-007</A3>
#       <Slope>1.00000000</Slope>
#       <Offset>0.0000</Offset>
#     </TemperatureSensor>
#   </sensor>
#   <sensor Channel="2" >
#     <!-- Frequency 0, Conductivity -->
#     <ConductivitySensor SensorID="3" >
#       <SerialNumber>7809</SerialNumber>
#       <CalibrationDate>24-Mar-19</CalibrationDate>
#       <UseG_J>1</UseG_J>
#       <!-- Cell const and series R are applicable only for wide range sensors. -->
#       <SeriesR>0.0000</SeriesR>
#       <CellConst>2000.0000</CellConst>
#       <ConductivityType>0</ConductivityType>
#       <Coefficients equation="0" >
#         <A>0.00000000e+000</A>
#         <B>0.00000000e+000</B>
#         <C>0.00000000e+000</C>
#         <D>0.00000000e+000</D>
#         <M>0.0</M>
#         <CPcor>-9.57000000e-008</CPcor>
#       </Coefficients>
#       <Coefficients equation="1" >
#         <G>-1.00589325e+000</G>
#         <H>1.26816302e-001</H>
#         <I>-1.51560448e-004</I>
#         <J>2.67137274e-005</J>
#         <CPcor>-9.57000000e-008</CPcor>
#         <CTcor>3.2500e-006</CTcor>
#         <!-- WBOTC not applicable unless ConductivityType = 1. -->
#         <WBOTC>0.00000000e+000</WBOTC>
#       </Coefficients>
#       <Slope>1.00000000</Slope>
#       <Offset>0.00000</Offset>
#     </ConductivitySensor>
#   </sensor>
#   <sensor Channel="3" >
#     <!-- Count, Pressure, Strain Gauge -->
#     <PressureSensor SensorID="46" >
#       <SerialNumber>7809</SerialNumber>
#       <CalibrationDate>11-Mar-19</CalibrationDate>
#       <PA0>4.56561833e-002</PA0>
#       <PA1>4.85095118e-004</PA1>
#       <PA2>-2.88327090e-012</PA2>
#       <PTEMPA0>-5.48784562e+001</PTEMPA0>
#       <PTEMPA1>5.53756816e+001</PTEMPA1>
#       <PTEMPA2>-5.86727098e-001</PTEMPA2>
#       <PTCA0>5.25246745e+005</PTCA0>
#       <PTCA1>1.22304214e+001</PTCA1>
#       <PTCA2>-3.56745036e-001</PTCA2>
#       <PTCB0>2.51668750e+001</PTCB0>
#       <PTCB1>3.75000000e-004</PTCB1>
#       <PTCB2>0.00000000e+000</PTCB2>
#       <Offset>0.000000</Offset>
#     </PressureSensor>
#   </sensor>
#   <sensor Channel="4" >
#     <!-- A/D voltage 0, Oxygen, SBE 43 -->
#     <OxygenSensor SensorID="38" >
#       <SerialNumber>0434</SerialNumber>
#       <CalibrationDate>13-Apr-19</CalibrationDate>
#       <Use2007Equation>1</Use2007Equation>
#       <CalibrationCoefficients equation="0" >
#         <!-- Coefficients for Owens-Millard equation. -->
#         <Boc>0.0000</Boc>
#         <Soc>0.0000e+000</Soc>
#         <offset>0.0000</offset>
#         <Pcor>0.00e+000</Pcor>
#         <Tcor>0.0000</Tcor>
#         <Tau>0.0</Tau>
#       </CalibrationCoefficients>
#       <CalibrationCoefficients equation="1" >
#         <!-- Coefficients for Sea-Bird equation - SBE calibration in 2007 and later. -->
#         <Soc>4.2007e-001</Soc>
#         <offset>-0.6109</offset>
#         <A>-4.3656e-003</A>
#         <B> 1.7017e-004</B>
#         <C>-2.5341e-006</C>
#         <D0> 2.5826e+000</D0>
#         <D1> 1.92634e-004</D1>
#         <D2>-4.64803e-002</D2>
#         <E> 3.6000e-002</E>
#         <Tau20> 1.1800</Tau20>
#         <H1>-3.3000e-002</H1>
#         <H2> 5.0000e+003</H2>
#         <H3> 1.4500e+003</H3>
#       </CalibrationCoefficients>
#     </OxygenSensor>
#   </sensor>
#   <sensor Channel="5" >
#     <!-- A/D voltage 1, PAR/Logarithmic, Satlantic -->
#     <PARLog_SatlanticSensor SensorID="76" >
#       <SerialNumber>1122</SerialNumber>
#       <CalibrationDate>08-May-2019</CalibrationDate>
#       <a0>9.7456e-001</a0>
#       <a1>8.1640e-001</a1>
#       <Im>1.3589e+000</Im>
#       <Multiplier>1.0000e+000</Multiplier>
#     </PARLog_SatlanticSensor>
#   </sensor>
#   <sensor Channel="6" >
#     <!-- A/D voltage 2, pH -->
#     <pH_Sensor SensorID="43" >
#       <SerialNumber>0363</SerialNumber>
#       <CalibrationDate>15-Apr-19</CalibrationDate>
#       <Slope>4.5952</Slope>
#       <Offset>2.5370</Offset>
#     </pH_Sensor>
#   </sensor>
#   <sensor Channel="7" >
#     <!-- A/D voltage 3, Oxidation Reduction Potential -->
#     <OxidationReductionPotentialSensor SensorID="41" >
#       <SerialNumber>0363</SerialNumber>
#       <CalibrationDate>15-Apr-19</CalibrationDate>
#       <B>2.499480</B>
#       <M>-0.496195</M>
#       <Offset>0.0</Offset>
#     </OxidationReductionPotentialSensor>
#   </sensor>
#   <sensor Channel="8" >
#     <!-- A/D voltage 4, Fluorometer, WET Labs ECO-AFL/FL -->
#     <FluoroWetlabECO_AFL_FL_Sensor SensorID="20" >
#       <SerialNumber>FLNTURT-2496</SerialNumber>
#       <CalibrationDate>08-May-2019</CalibrationDate>
#       <ScaleFactor>5.00000000e+001</ScaleFactor>
#       <!-- Dark output -->
#       <Vblank>0.0550</Vblank>
#     </FluoroWetlabECO_AFL_FL_Sensor>
#   </sensor>
#   <sensor Channel="9" >
#     <!-- A/D voltage 5, Turbidity Meter, WET Labs, ECO-NTU -->
#     <TurbidityMeter SensorID="67" >
#       <SerialNumber>FLNTURT-2496</SerialNumber>
#       <CalibrationDate>08-May-2019</CalibrationDate>
#       <ScaleFactor>189.000000</ScaleFactor>
#       <!-- Dark output -->
#       <DarkVoltage>0.071000</DarkVoltage>
#     </TurbidityMeter>
#   </sensor>
# </Sensors>
# datcnv_date = Jun 13 2019 13:44:50, 7.26.7.129 [datcnv_vars = 15]
# datcnv_in = C:\DATA\SBE19plus_01907809_2019_06_13_0002.hex C:\DATA\SBE19plusV2_7809.xmlcon
# datcnv_skipover = 0
# datcnv_ox_hysteresis_correction = yes
# datcnv_ox_tau_correction = yes
# filter_date = Jun 13 2019 13:45:19, 7.26.7.129
# filter_in = C:\DATA\SBE19plus_01907809_2019_06_13_0002.cnv
# filter_low_pass_tc_A = 0.030
# filter_low_pass_tc_B = 0.150
# filter_low_pass_A_vars = prdM prdE tv290C density00
# filter_low_pass_B_vars = depFM dz/dtM sbeox0Mg/L sbeox0PS specc c0uS/cm flECO-AFL ph orp par/sat/log turbWETntu0
# alignctd_date = Jun 13 2019 13:45:41, 7.26.7.129
# alignctd_in = C:\DATA\SBE19plus_01907809_2019_06_13_0002.cnv
# alignctd_adv = dz/dtM 1.000, sbeox0Mg/L 1.000, sbeox0PS 1.000, specc 1.000, c0uS/cm 1.000, flECO-AFL 1.000, ph 1.000, orp 1.000, turbWETntu0 1.000                                                                                 
# file_type = ascii
*END*
     -0.662 1.2957e-19     8.2936     96.954      0.598   0.575685    -0.1179      7.465   441.0140 2.0262e+02    -0.2508     -0.649     -0.941    23.1412   997.5119 0.0000e+00
     -0.662 1.3477e-20     8.2919     96.937      0.518   0.498604    -0.1239      7.415   452.2285 1.9311e+02    -0.2545     -0.649     -0.942    23.1413   997.5120 0.0000e+00
     -0.662 1.9907e-20     8.2920     96.940      0.510   0.491421    -0.1163      7.386   480.5443 1.8511e+02    -0.2329     -0.649     -0.942    23.1415   997.5119 0.0000e+00
     -0.662 2.0730e-19     8.2929     96.951      0.573   0.552186    -0.1040      7.394   479.1425 1.8251e+02    -0.2191     -0.649     -0.941    23.1421   997.5117 0.0000e+00
     -0.662 2.2793e-18     8.2930     96.953      0.557   0.536356    -0.1054      7.417   439.7544 1.7866e+02    -0.2513     -0.649     -0.941    23.1436   997.5113 0.0000e+00
     -0.662 2.5072e-17     8.2923     96.946      0.509   0.490106    -0.1154      7.432   402.7542 1.6464e+02    -0.2940     -0.649     -0.941    23.1450   997.5110 0.0000e+00
     -0.662 2.7579e-16     8.2920     96.943      0.454   0.436496    -0.1207      7.434   382.0412 1.4801e+02    -0.3094     -0.649     -0.942    23.1461   997.5108 0.0000e+00
     -0.661 3.0337e-15     8.2939     96.965      0.410   0.395031    -0.1179      7.430   343.8419 1.4651e+02    -0.2409     -0.648     -0.941    23.1466   997.5106 0.0000e+00
     -0.661 3.3371e-14     8.2960     96.990      0.515   0.495617    -0.1161      7.429   268.6997 1.5450e+02    -0.1217     -0.648     -0.940    23.1470   997.5105 0.0000e+00
     -0.662 3.6708e-13     8.2965     96.996      0.926   0.892369    -0.1161      7.429   181.4337 1.5848e+02    -0.0800     -0.649     -0.941    23.1473   997.5104 0.0000e+00
     -0.662 4.0379e-12     8.2960     96.991      1.509   1.453881    -0.1185      7.426   109.1016 1.6614e+02    -0.0652     -0.649     -0.941    23.1473   997.5104 0.0000e+00
     -0.662 4.4417e-11     8.2946     96.975      1.774   1.709064    -0.1269      7.416    56.9841 1.8971e+02     0.0246     -0.648     -0.940    23.1474   997.5104 0.0000e+00
     -0.662 4.8858e-10     8.2934     96.961      1.762   1.696775    -0.1304      7.401    24.3296 2.2911e+02     0.1537     -0.649     -0.941    23.1475   997.5104 0.0000e+00
     -0.662 5.3744e-09     8.2936     96.963      1.816   1.748830    -0.1176      7.392     6.8977 2.6806e+02     0.2177     -0.649     -0.941    23.1478   997.5103 0.0000e+00
     -0.662 5.9119e-08     8.2941     96.969      1.967   1.894920    -0.1023      7.390    -0.8053 2.9306e+02     0.2092     -0.649     -0.942    23.1481   997.5103 0.0000e+00
     -0.662 2.6361e-07     8.2939     96.966      2.083   2.005793    -0.1110      7.379    13.0162 3.0824e+02     0.1484     -0.649     -0.941    23.1482   997.5103 0.0000e+00
     -0.662 2.2846e-07     8.2936     96.963      2.024   1.948848    -0.1272      7.357    51.7508 3.1609e+02     0.0402     -0.648     -0.940    23.1484   997.5102 0.0000e+00
     -0.662 2.0769e-08     8.2936     96.963      1.911   1.840036    -0.1251      7.341    92.9165 3.1874e+02    -0.0181     -0.649     -0.941    23.1485   997.5102 0.0000e+00
     -0.662 1.8881e-09     8.2951     96.979      1.901   1.830701    -0.1201      7.338   127.0980 3.2167e+02    -0.0321     -0.649     -0.941    23.1484   997.5102 0.0000e+00
     -0.662 1.7164e-10     8.2974     97.005      1.906   1.835978    -0.1274      7.337   173.6216 3.2516e+02    -0.1285     -0.648     -0.940    23.1482   997.5103 0.0000e+00
     -0.662 1.5604e-11     8.2975     97.006      1.845   1.777104    -0.1350      7.327   252.5928 3.2840e+02    -0.2657     -0.649     -0.941    23.1481   997.5103 0.0000e+00
     -0.662 1.4186e-12     8.2963     96.991      1.754   1.689130    -0.1255      7.317   347.8455 3.3048e+02    -0.3147     -0.648     -0.940    23.1482   997.5103 0.0000e+00
     -0.662 1.2896e-13     8.2955     96.984      1.723   1.659373    -0.1075      7.317   433.3454 3.3023e+02    -0.2952     -0.649     -0.941    23.1477   997.5104 0.0000e+00
     -0.662 1.1724e-14     8.2950     96.980      1.735   1.670759    -0.1082      7.324   508.2259 3.2751e+02    -0.2587     -0.649     -0.941    23.1469   997.5106 0.0000e+00
     -0.661 1.0658e-15     8.2945     96.977      1.700   1.636719    -0.1168      7.334   569.2061 3.2555e+02    -0.3005     -0.648     -0.940    23.1460   997.5108 0.0000e+00
     -0.661 9.6890e-17     8.2944     96.976      1.625   1.564609    -0.1160      7.347   610.1064 3.2776e+02    -0.4397     -0.648     -0.940    23.1459   997.5108 0.0000e+00
     -0.662 8.8080e-18     8.2944     96.975      1.554   1.495861    -0.1158      7.360   635.1022 3.3082e+02    -0.5322     -0.649     -0.941    23.1475   997.5104 0.0000e+00
     -0.662 8.0075e-19     8.2950     96.980      1.494   1.439114    -0.1149      7.371   647.8986 3.3393e+02    -0.5343     -0.649     -0.941    23.1491   997.5101 0.0000e+00
     -0.662 7.2795e-20     8.2962     96.994      1.439   1.385382    -0.1130      7.381   652.5450 3.3892e+02    -0.4974     -0.650     -0.942    23.1504   997.5097 0.0000e+00
     -0.662 6.6175e-21     8.2972     97.005      1.405   1.353076    -0.1110      7.388   655.4024 3.3881e+02    -0.4799     -0.649     -0.941    23.1506   997.5096 0.0000e+00
     -0.662 6.0160e-22     8.2977     97.011      1.352   1.301947    -0.1071      7.391   658.6139 3.2801e+02    -0.4861     -0.649     -0.941    23.1499   997.5098 0.0000e+00
     -0.662 5.4690e-23     8.2980     97.014      1.257   1.210715    -0.1100      7.393   660.3155 3.1042e+02    -0.5070     -0.648     -0.940    23.1491   997.5100 0.0000e+00
     -0.662 4.9724e-24     8.2982     97.016      1.181   1.137059    -0.1109      7.395   660.0595 2.8570e+02    -0.5365     -0.649     -0.941    23.1484   997.5102 0.0000e+00
     -0.662 4.5686e-25     8.2984     97.018      1.151   1.108351    -0.1007      7.396   659.4756 2.5426e+02    -0.5475     -0.649     -0.941    23.1481   997.5102 0.0000e+00
     -0.662 9.4590e-26     8.2979     97.012      1.160   1.117053    -0.1000      7.397   661.6885 2.2289e+02    -0.5417     -0.648     -0.940    23.1481   997.5102 0.0000e+00
     -0.662 5.9222e-25     8.2977     97.009      1.158   1.115551    -0.1113      7.399   666.5958 1.9269e+02    -0.4989     -0.649     -0.941    23.1484   997.5101 0.0000e+00
     -0.661 6.4737e-24     8.2985     97.017      1.132   1.090183    -0.1154      7.401   668.6484 1.6553e+02    -0.4561     -0.648     -0.940    23.1482   997.5102 0.0000e+00
     -0.661 7.1207e-23     8.2977     97.007      1.105   1.063779    -0.1151      7.401   667.4056 1.4644e+02    -0.4840     -0.648     -0.940    23.1478   997.5103 0.0000e+00
     -0.661 7.8328e-22     8.2964     96.992      1.090   1.049746    -0.1170      7.401   665.3355 1.3793e+02    -0.5404     -0.648     -0.940    23.1476   997.5103 0.0000e+00
     -0.661 8.6161e-21     8.2972     96.999      1.088   1.047225    -0.1203      7.400   662.3757 1.3762e+02    -0.5482     -0.648     -0.940    23.1474   997.5104 0.0000e+00
     -0.661 9.4777e-20     8.2983     97.010      1.073   1.033295    -0.1205      7.400   659.3232 1.3994e+02    -0.5126     -0.648     -0.940    23.1471   997.5105 0.0000e+00
     -0.661 1.0425e-18     8.2977     97.001      1.047   1.008045    -0.1187      7.400   656.1337 1.4117e+02    -0.5036     -0.648     -0.939    23.1466   997.5106 0.0000e+00
     -0.661 1.1468e-17     8.2964     96.986      1.034   0.995361    -0.1245      7.401   653.1501 1.4006e+02    -0.5051     -0.648     -0.940    23.1465   997.5106 0.0000e+00
     -0.661 1.2615e-16     8.2968     96.993      1.045   1.006661    -0.1299      7.402   651.4701 1.3798e+02    -0.4649     -0.648     -0.940    23.1457   997.5108 0.0000e+00
     -0.662 1.3876e-15     8.2987     97.017      1.057   1.017952    -0.1231      7.400   649.8447 1.3726e+02    -0.4430     -0.649     -0.941    23.1439   997.5112 0.0000e+00
     -0.662 1.5264e-14     8.3002     97.036      1.044   1.005166    -0.1116      7.398   647.2639 1.4154e+02    -0.4704     -0.649     -0.941    23.1430   997.5115 0.0000e+00
     -0.661 1.6790e-13     8.3006     97.040      1.017   0.978782    -0.1128      7.397   644.3573 1.5155e+02    -0.5012     -0.648     -0.940    23.1433   997.5114 0.0000e+00
     -0.661 1.8469e-12     8.3011     97.045      0.989   0.952390    -0.1203      7.397   641.3732 1.6005e+02    -0.4880     -0.648     -0.940    23.1443   997.5111 0.0000e+00
     -0.661 2.0316e-11     8.3005     97.036      0.976   0.939497    -0.1158      7.397   637.8555 1.6224e+02    -0.4411     -0.649     -0.941    23.1455   997.5109 0.0000e+00
     -0.661 2.2348e-10     8.2992     97.019      0.986   0.949618    -0.1100      7.396   634.0902 1.6152e+02    -0.4589     -0.648     -0.940    23.1467   997.5106 0.0000e+00
     -0.661 2.4583e-09     8.2991     97.019      0.984   0.948040    -0.1117      7.397   629.6603 1.6151e+02    -0.5073     -0.648     -0.939    23.1462   997.5107 0.0000e+00
     -0.661 2.7041e-08     8.2989     97.016      0.956   0.920415    -0.1103      7.399   623.9589 1.6262e+02    -0.5015     -0.648     -0.940    23.1443   997.5111 0.0000e+00
     -0.661 2.9745e-07     8.2983     97.009      0.902   0.869053    -0.1099      7.398   620.7354 1.6432e+02    -0.4871     -0.648     -0.939    23.1436   997.5113 0.0000e+00
     -0.661      0.000     8.2986     97.011      0.866   0.833899    -0.1153      7.394   622.1760 1.6691e+02    -0.4976     -0.649     -0.940    23.1434   997.5113 0.0000e+00
     -0.661      0.000     8.2990     97.014      0.909   0.875531    -0.1148      7.394   635.2680 1.7306e+02    -0.5293     -0.648     -0.941    23.1438   997.5113 0.0000e+00
     -0.661      0.000     8.2986     97.008      1.162   1.118990    -0.1039      7.422   785.7409 1.8322e+02    -0.5421     -0.648     -0.940    23.1432   997.5114 0.0000e+00
     -0.661      0.004     8.3002     97.012      3.794   3.650819    -0.0962      7.682  1046.4040 1.9241e+02    -0.5217     -0.648     -0.938    23.1438   997.5113 0.0000e+00
     -0.661      0.018     8.3109     97.025     10.021   9.623231    -0.1086      8.148   961.8249 2.0031e+02    -0.4467     -0.648     -0.940    23.1416   997.5118 0.0000e+00
     -0.661      0.042     8.3382     97.036     18.951  18.127127    -0.1234      8.468   540.1227 2.0863e+02    -0.3237     -0.647     -0.939    23.1433   997.5115 0.0000e+00
     -0.660      0.071     8.3751     97.053     28.162  26.832681    -0.1193      8.685   308.5383 2.1560e+02    -0.2466     -0.649     -0.941    23.1392   997.5122 0.0000e+00
     -0.645      0.101     8.4074     97.076     32.806  31.157954    -0.1113      8.963   292.8641 2.2542e+02    -0.1043     -0.645     -0.935    23.1449   997.5113 0.0000e+00
     -0.605      0.127     8.4319     97.103     33.366  31.602619    -0.0965      9.253   294.6820 2.3851e+02     1.3969     -0.599     -0.869    23.1235   997.5180 0.0000e+00
     -0.551      0.147     8.4494     97.113     33.341  31.510957     0.0514      9.521   297.6514 2.4888e+02    17.8719     -0.534     -0.776    22.9291   997.5665 0.0000e+00
