* Sea-Bird SBE19plus  Data File:
* FileName = C:\DATA\061319_bvr50_0001.hex
* Software version 2.8.0.119 SB_Terminal.dll
* Temperature SN = 7809
* Conductivity SN = 7809
* System UpLoad Time = Jun 13 2019 10:53:00
* <ApplicationData>
* <Seaterm232>
* <SoftwareVersion>2.8.0.119</SoftwareVersion>
* <BuildDate>07-Nov-2018</BuildDate>
* </Seaterm232>
* </ApplicationData>
* cast   1 13 Jun 2019 10:35:28 samples 1 to 1219, avg = 1, stop = mag switch
# nquan = 16
# nvalues = 1051                        
# units = specified
# name 0 = depFM: Depth [fresh water, m]
# name 1 = dz/dtM: Descent Rate [m/s]
# name 2 = sbeox0Mg/L: Oxygen, SBE 43 [mg/l]
# name 3 = sbeox0PS: Oxygen, SBE 43 [% saturation]
# name 4 = specc: Specific Conductance [uS/cm]
# name 5 = c0uS/cm: Conductivity [uS/cm]
# name 6 = flECO-AFL: Fluorescence, WET Labs ECO-AFL/FL [mg/m^3]
# name 7 = ph: pH
# name 8 = orp: Oxidation Reduction Potential [mV]
# name 9 = par/sat/log: PAR/Logarithmic, Satlantic
# name 10 = turbWETntu0: Turbidity, WET Labs ECO [NTU]
# name 11 = prdM: Pressure, Strain Gauge [db]
# name 12 = prdE: Pressure, Strain Gauge [psi]
# name 13 = tv290C: Temperature [ITS-90, deg C]
# name 14 = density00: Density [density, kg/m^3]
# name 15 = flag:  0.000e+00
# span 0 =     -0.743,     10.515       
# span 1 =     -0.140,      0.110       
# span 2 =    -0.2985,    10.0816       
# span 3 =     -2.637,     98.422       
# span 4 =      0.794,    128.456       
# span 5 =   0.717633,  85.363214       
# span 6 =    -0.7662,    16.2241       
# span 7 =      3.009,     10.262       
# span 8 = -1240.7455,  1187.3620       
# span 9 = 1.2355e-01, 1.9885e+03       
# span 10 =    -4.5051,    13.3169      
# span 11 =     -0.728,     10.312      
# span 12 =     -1.056,     14.956      
# span 13 =     8.1952,    22.1564      
# span 14 =   997.7491,   999.9354      
# span 15 = 0.0000e+00, 0.0000e+00      
# interval = seconds: 0.25
# start_time = Jun 13 2019 10:35:28 [Instrument's time stamp, header]
# bad_flag = -9.990e-29
# <Sensors count="9" >
#   <sensor Channel="1" >
#     <!-- Count, Temperature -->
#     <TemperatureSensor SensorID="58" >
#       <SerialNumber>7809</SerialNumber>
#       <CalibrationDate>24-Mar-19</CalibrationDate>
#       <A0>1.21792325e-003</A0>
#       <A1>2.81669265e-004</A1>
#       <A2>-1.60333336e-006</A2>
#       <A3>1.98414625e-007</A3>
#       <Slope>1.00000000</Slope>
#       <Offset>0.0000</Offset>
#     </TemperatureSensor>
#   </sensor>
#   <sensor Channel="2" >
#     <!-- Frequency 0, Conductivity -->
#     <ConductivitySensor SensorID="3" >
#       <SerialNumber>7809</SerialNumber>
#       <CalibrationDate>24-Mar-19</CalibrationDate>
#       <UseG_J>1</UseG_J>
#       <!-- Cell const and series R are applicable only for wide range sensors. -->
#       <SeriesR>0.0000</SeriesR>
#       <CellConst>2000.0000</CellConst>
#       <ConductivityType>0</ConductivityType>
#       <Coefficients equation="0" >
#         <A>0.00000000e+000</A>
#         <B>0.00000000e+000</B>
#         <C>0.00000000e+000</C>
#         <D>0.00000000e+000</D>
#         <M>0.0</M>
#         <CPcor>-9.57000000e-008</CPcor>
#       </Coefficients>
#       <Coefficients equation="1" >
#         <G>-1.00589325e+000</G>
#         <H>1.26816302e-001</H>
#         <I>-1.51560448e-004</I>
#         <J>2.67137274e-005</J>
#         <CPcor>-9.57000000e-008</CPcor>
#         <CTcor>3.2500e-006</CTcor>
#         <!-- WBOTC not applicable unless ConductivityType = 1. -->
#         <WBOTC>0.00000000e+000</WBOTC>
#       </Coefficients>
#       <Slope>1.00000000</Slope>
#       <Offset>0.00000</Offset>
#     </ConductivitySensor>
#   </sensor>
#   <sensor Channel="3" >
#     <!-- Count, Pressure, Strain Gauge -->
#     <PressureSensor SensorID="46" >
#       <SerialNumber>7809</SerialNumber>
#       <CalibrationDate>11-Mar-19</CalibrationDate>
#       <PA0>4.56561833e-002</PA0>
#       <PA1>4.85095118e-004</PA1>
#       <PA2>-2.88327090e-012</PA2>
#       <PTEMPA0>-5.48784562e+001</PTEMPA0>
#       <PTEMPA1>5.53756816e+001</PTEMPA1>
#       <PTEMPA2>-5.86727098e-001</PTEMPA2>
#       <PTCA0>5.25246745e+005</PTCA0>
#       <PTCA1>1.22304214e+001</PTCA1>
#       <PTCA2>-3.56745036e-001</PTCA2>
#       <PTCB0>2.51668750e+001</PTCB0>
#       <PTCB1>3.75000000e-004</PTCB1>
#       <PTCB2>0.00000000e+000</PTCB2>
#       <Offset>0.000000</Offset>
#     </PressureSensor>
#   </sensor>
#   <sensor Channel="4" >
#     <!-- A/D voltage 0, Oxygen, SBE 43 -->
#     <OxygenSensor SensorID="38" >
#       <SerialNumber>0434</SerialNumber>
#       <CalibrationDate>13-Apr-19</CalibrationDate>
#       <Use2007Equation>1</Use2007Equation>
#       <CalibrationCoefficients equation="0" >
#         <!-- Coefficients for Owens-Millard equation. -->
#         <Boc>0.0000</Boc>
#         <Soc>0.0000e+000</Soc>
#         <offset>0.0000</offset>
#         <Pcor>0.00e+000</Pcor>
#         <Tcor>0.0000</Tcor>
#         <Tau>0.0</Tau>
#       </CalibrationCoefficients>
#       <CalibrationCoefficients equation="1" >
#         <!-- Coefficients for Sea-Bird equation - SBE calibration in 2007 and later. -->
#         <Soc>4.2007e-001</Soc>
#         <offset>-0.6109</offset>
#         <A>-4.3656e-003</A>
#         <B> 1.7017e-004</B>
#         <C>-2.5341e-006</C>
#         <D0> 2.5826e+000</D0>
#         <D1> 1.92634e-004</D1>
#         <D2>-4.64803e-002</D2>
#         <E> 3.6000e-002</E>
#         <Tau20> 1.1800</Tau20>
#         <H1>-3.3000e-002</H1>
#         <H2> 5.0000e+003</H2>
#         <H3> 1.4500e+003</H3>
#       </CalibrationCoefficients>
#     </OxygenSensor>
#   </sensor>
#   <sensor Channel="5" >
#     <!-- A/D voltage 1, PAR/Logarithmic, Satlantic -->
#     <PARLog_SatlanticSensor SensorID="76" >
#       <SerialNumber>1122</SerialNumber>
#       <CalibrationDate>08-May-2019</CalibrationDate>
#       <a0>9.7456e-001</a0>
#       <a1>8.1640e-001</a1>
#       <Im>1.3589e+000</Im>
#       <Multiplier>1.0000e+000</Multiplier>
#     </PARLog_SatlanticSensor>
#   </sensor>
#   <sensor Channel="6" >
#     <!-- A/D voltage 2, pH -->
#     <pH_Sensor SensorID="43" >
#       <SerialNumber>0363</SerialNumber>
#       <CalibrationDate>15-Apr-19</CalibrationDate>
#       <Slope>4.5952</Slope>
#       <Offset>2.5370</Offset>
#     </pH_Sensor>
#   </sensor>
#   <sensor Channel="7" >
#     <!-- A/D voltage 3, Oxidation Reduction Potential -->
#     <OxidationReductionPotentialSensor SensorID="41" >
#       <SerialNumber>0363</SerialNumber>
#       <CalibrationDate>15-Apr-19</CalibrationDate>
#       <B>2.499480</B>
#       <M>-0.496195</M>
#       <Offset>0.0</Offset>
#     </OxidationReductionPotentialSensor>
#   </sensor>
#   <sensor Channel="8" >
#     <!-- A/D voltage 4, Fluorometer, WET Labs ECO-AFL/FL -->
#     <FluoroWetlabECO_AFL_FL_Sensor SensorID="20" >
#       <SerialNumber>FLNTURT-2496</SerialNumber>
#       <CalibrationDate>08-May-2019</CalibrationDate>
#       <ScaleFactor>5.00000000e+001</ScaleFactor>
#       <!-- Dark output -->
#       <Vblank>0.0550</Vblank>
#     </FluoroWetlabECO_AFL_FL_Sensor>
#   </sensor>
#   <sensor Channel="9" >
#     <!-- A/D voltage 5, Turbidity Meter, WET Labs, ECO-NTU -->
#     <TurbidityMeter SensorID="67" >
#       <SerialNumber>FLNTURT-2496</SerialNumber>
#       <CalibrationDate>08-May-2019</CalibrationDate>
#       <ScaleFactor>189.000000</ScaleFactor>
#       <!-- Dark output -->
#       <DarkVoltage>0.071000</DarkVoltage>
#     </TurbidityMeter>
#   </sensor>
# </Sensors>
# datcnv_date = Jun 13 2019 10:53:57, 7.26.7.129 [datcnv_vars = 15]
# datcnv_in = C:\DATA\061319_bvr50_0001.hex C:\DATA\SBE19plusV2_7809.xmlcon
# datcnv_skipover = 0
# datcnv_ox_hysteresis_correction = yes
# datcnv_ox_tau_correction = yes
# filter_date = Jun 13 2019 10:54:32, 7.26.7.129
# filter_in = C:\DATA\061319_bvr50_0001.cnv
# filter_low_pass_tc_A = 0.030
# filter_low_pass_tc_B = 0.150
# filter_low_pass_A_vars = prdM prdE tv290C density00
# filter_low_pass_B_vars = depFM dz/dtM sbeox0Mg/L sbeox0PS specc c0uS/cm flECO-AFL ph orp par/sat/log turbWETntu0
# alignctd_date = Jun 13 2019 10:54:55, 7.26.7.129
# alignctd_in = C:\DATA\061319_bvr50_0001.cnv
# alignctd_adv = dz/dtM 1.000, sbeox0Mg/L 1.000, sbeox0PS 1.000, specc 1.000, c0uS/cm 1.000, flECO-AFL 1.000, ph 1.000, orp 1.000, turbWETntu0 1.000                                                                                 
# file_type = ascii
*END*
     -0.743 -6.701e-19     8.6578     95.819      0.863   0.782375    -0.1403      7.420 -1240.7455 1.6787e+03    -0.5371     -0.728     -1.056    20.3296   998.1411 0.0000e+00
     -0.743 2.4167e-17     8.6578     95.811      0.862   0.781118    -0.1440      7.420 -1240.7455 1.7158e+03    -0.5239     -0.728     -1.056    20.3276   998.1416 0.0000e+00
     -0.743 2.6870e-16     8.6579     95.805      0.835   0.756916    -0.1431      7.415 -1240.7455 1.7780e+03    -0.4755     -0.728     -1.056    20.3238   998.1423 0.0000e+00
     -0.743 2.9560e-15     8.6594     95.807      0.820   0.743197    -0.1376      7.413 -1240.7455 1.8255e+03    -0.4435     -0.728     -1.056    20.3178   998.1436 0.0000e+00
     -0.743 3.2516e-14     8.6610     95.805      0.819   0.741958    -0.1475      7.413 -1240.7455 1.8098e+03    -0.4660     -0.728     -1.056    20.3119   998.1448 0.0000e+00
     -0.742 3.5768e-13     8.6626     95.799      0.819   0.741934    -0.1584      7.413 -1240.7455 1.7494e+03    -0.4845     -0.728     -1.056    20.3091   998.1453 0.0000e+00
     -0.742 3.9345e-12     8.6647     95.796      0.820   0.742910    -0.1565      7.414 -1240.7455 1.6923e+03    -0.4709     -0.728     -1.056    20.3064   998.1459 0.0000e+00
     -0.742 4.3279e-11     8.6667     95.793      0.833   0.753763    -0.1508      7.415 -1240.7455 1.6413e+03    -0.4321     -0.728     -1.056    20.2985   998.1476 0.0000e+00
     -0.742 4.7607e-10     8.6687     95.789      0.825   0.746432    -0.1413      7.416 -1240.7455 1.5818e+03    -0.4094     -0.728     -1.056    20.2874   998.1500 0.0000e+00
     -0.742 5.2368e-09     8.6720     95.799      0.794   0.717633    -0.1283      7.417 -1240.7455 1.5302e+03    -0.4259     -0.728     -1.056    20.2753   998.1525 0.0000e+00
     -0.742 5.7604e-08     8.6766     95.823      0.799   0.722356    -0.1235      7.417 -1240.7455 1.5119e+03    -0.4347     -0.728     -1.056    20.2611   998.1555 0.0000e+00
     -0.742 6.3365e-07     8.6790     95.827      0.819   0.740176    -0.1263      7.414 -1240.7455 1.5335e+03    -0.4497     -0.728     -1.056    20.2466   998.1585 0.0000e+00
     -0.743      0.000     8.6797     95.815      0.822   0.743013    -0.1192      7.399 -1240.7453 1.5837e+03    -0.4771     -0.728     -1.056    20.2335   998.1612 0.0000e+00
     -0.743      0.000     8.6813     95.817      0.837   0.756659    -0.1076      7.274 -1240.7430 1.6357e+03    -0.5027     -0.728     -1.056    20.2196   998.1641 0.0000e+00
     -0.742      0.001     8.6817     95.814      0.862   0.778453    -0.0550      6.039 -1240.7180 1.6789e+03    -0.5955     -0.728     -1.056    20.2049   998.1671 0.0000e+00
     -0.742      0.004     8.6732     95.804      0.832   0.753078     0.6035      3.728 -1240.4427 1.7232e+03    -1.5998     -0.728     -1.056    20.1920   998.1698 0.0000e+00
     -0.742      0.012     8.6401     95.794      0.980   0.893367     1.8195      3.009 -1237.4146 1.7803e+03    -3.4697     -0.728     -1.056    20.1825   998.1719 0.0000e+00
     -0.742      0.023     8.5800     95.770      2.481   2.284597     2.4755      4.474 -1204.1058 1.8398e+03    -4.4906     -0.728     -1.056    20.1731   998.1738 0.0000e+00
     -0.739      0.033     8.5185     95.735      6.871   6.358518     2.5095      6.042  -837.7093 1.8789e+03    -4.5051     -0.728     -1.056    20.1657   998.1753 0.0000e+00
     -0.728      0.043     8.4753     95.718     12.312  11.427567     2.2302      6.931    61.8579 1.8834e+03    -3.5140     -0.717     -1.039    20.1570   998.1772 0.0000e+00
     -0.709      0.052     8.4474     95.716     15.664  14.578385     1.6994      7.457   903.1044 1.8420e+03    -1.6182     -0.694     -1.007    20.3272   998.1418 0.0000e+00
     -0.690      0.060     8.4291     95.715     19.521  18.210781     1.4068      7.874  1187.3620 1.7721e+03    -0.5579     -0.674     -0.977    20.7562   998.0510 0.0000e+00
     -0.675      0.066     8.4188     95.720     24.967  23.320561     1.3710      8.324   991.0058 1.7158e+03    -0.4607     -0.662     -0.959    21.1420   997.9687 0.0000e+00
     -0.661      0.070     8.4129     95.730     27.886  26.066315     1.3181      8.771   581.0153 1.7088e+03    -0.3113     -0.651     -0.944    21.3700   997.9209 0.0000e+00
     -0.644      0.075     8.4074     95.733     28.244  26.419984     0.7853      9.130   351.0518 1.7540e+03     1.3137     -0.632     -0.917    21.5316   997.8854 0.0000e+00
     -0.625      0.080     8.4021     95.733     28.194  26.391404    -0.1985      9.407   321.1654 1.8109e+03     4.2767     -0.612     -0.889    21.6431   997.8615 0.0000e+00
     -0.603      0.085     8.3966     95.741     27.996  26.228316    -0.7362      9.637   310.0026 1.8479e+03     5.8873     -0.594     -0.863    21.6973   997.8523 0.0000e+00
     -0.577      0.088     8.3892     95.748     27.760  26.034129    -0.7662      9.808   302.4668 1.8709e+03     5.9740     -0.566     -0.822    21.7305   997.8455 0.0000e+00
     -0.551      0.088     8.3833     95.776     27.636  25.946739    -0.5609      9.913   297.0755 1.8887e+03     5.1288     -0.539     -0.781    21.7683   997.8370 0.0000e+00
     -0.530      0.084     8.3821     95.846     27.663  25.996441    -0.1787      9.968   293.0855 1.7998e+03     3.5011     -0.521     -0.754    21.7957   997.8310 0.0000e+00
     -0.509      0.077     8.3851     95.946     27.714  26.064157     0.0321      9.998   289.3276 1.6490e+03     2.5805     -0.499     -0.724    21.8318   997.8228 0.0000e+00
     -0.488      0.070     8.3917     96.070     27.635  26.004240     0.0538     10.037   285.7965 1.7013e+03     2.4530     -0.477     -0.692    21.8860   997.8107 0.0000e+00
     -0.472      0.064     8.4001     96.197     27.521  25.906401     0.0924     10.094   283.0001 1.8783e+03     2.1235     -0.462     -0.669    21.9404   997.7984 0.0000e+00
     -0.459      0.060     8.4100     96.321     27.507  25.896230     0.1777     10.139   281.0702 1.9380e+03     1.5131     -0.450     -0.652    21.9860   997.7881 0.0000e+00
     -0.447      0.055     8.4232     96.462     27.562  25.944706     0.2355     10.149   278.8097 1.8535e+03     1.1687     -0.439     -0.637    22.0218   997.7801 0.0000e+00
     -0.434      0.050     8.4369     96.604     27.676  26.048442     0.2450     10.134   275.2864 1.6459e+03     1.1061     -0.427     -0.621    22.0469   997.7744 0.0000e+00
     -0.418      0.046     8.4483     96.729     27.771  26.135463     0.2491     10.119   272.3690 1.3331e+03     1.0505     -0.409     -0.594    22.0652   997.7702 0.0000e+00
     -0.405      0.043     8.4576     96.831     27.811  26.172160     0.2514     10.119   270.9822 1.0391e+03     1.0530     -0.394     -0.572    22.0718   997.7688 0.0000e+00
     -0.396      0.038     8.4643     96.902     27.883  26.238381     0.2463     10.137   269.5319 9.1671e+02     1.1049     -0.387     -0.562    22.0615   997.7712 0.0000e+00
     -0.389      0.031     8.4695     96.955     27.953  26.301727     0.2480     10.167   267.5680 9.6504e+02     1.1527     -0.381     -0.553    22.0512   997.7736 0.0000e+00
     -0.381      0.023     8.4743     97.004     27.957  26.303659     0.2549     10.202   265.8213 1.0804e+03     1.1721     -0.374     -0.542    22.0503   997.7740 0.0000e+00
     -0.375      0.015     8.4769     97.029     27.913  26.261739     0.2516     10.227   264.2432 1.1124e+03     1.1435     -0.367     -0.532    22.0488   997.7743 0.0000e+00
     -0.370      0.008     8.4769     97.027     27.822  26.175524     0.2513     10.240   263.2860 1.0447e+03     1.1018     -0.361     -0.524    22.0448   997.7752 0.0000e+00
     -0.370      0.003     8.4759     97.012     27.661  26.022511     0.2596     10.248   263.2825 1.0256e+03     1.0938     -0.361     -0.524    22.0416   997.7760 0.0000e+00
     -0.374     -0.001     8.4741     96.983     27.367  25.743907     0.2572     10.253   263.2536 1.0925e+03     1.1114     -0.368     -0.533    22.0382   997.7767 0.0000e+00
     -0.377     -0.003     8.4711     96.943     27.011  25.407927     0.2481     10.258   262.8512 1.2055e+03     1.1194     -0.370     -0.538    22.0350   997.7774 0.0000e+00
     -0.379     -0.002     8.4657     96.884     26.785  25.195545     0.2454     10.261   262.5471 1.3344e+03     1.0909     -0.371     -0.538    22.0351   997.7773 0.0000e+00
     -0.379      0.000     8.4574     96.796     26.726  25.142581     0.2499     10.262   262.2440 1.3922e+03     1.0621     -0.372     -0.540    22.0344   997.7775 0.0000e+00
     -0.377      0.004     8.4478     96.696     26.730  25.148165     0.2594     10.259   261.6813 1.3427e+03     1.0669     -0.371     -0.538    22.0285   997.7787 0.0000e+00
     -0.374      0.006     8.4382     96.597     26.714  25.136193     0.2557     10.252   260.8203 1.2583e+03     1.0497     -0.367     -0.532    22.0243   997.7795 0.0000e+00
     -0.372      0.007     8.4326     96.542     26.699  25.124703     0.2397     10.246   259.5763 1.2062e+03     1.0514     -0.365     -0.529    22.0267   997.7790 0.0000e+00
     -0.372      0.008     8.4317     96.539     26.709  25.136121     0.2309     10.241   257.9977 1.1857e+03     1.1201     -0.364     -0.529    22.0308   997.7780 0.0000e+00
     -0.370      0.010     8.4324     96.556     26.718  25.147379     0.2369     10.239   256.1886 1.1804e+03     1.1588     -0.363     -0.527    22.0358   997.7769 0.0000e+00
     -0.367      0.014     8.4434     96.695     26.700  25.133947     0.2504     10.238   254.2224 1.1816e+03     1.1598     -0.361     -0.523    22.0426   997.7754 0.0000e+00
     -0.364      0.020     8.4754     97.072     26.662  25.100591     0.2556     10.241   252.4654 1.1144e+03     1.1640     -0.358     -0.519    22.0476   997.7742 0.0000e+00
     -0.360      0.027     8.5033     97.400     26.617  25.061261     0.2566     10.243   251.1190 9.7497e+02     1.1441     -0.354     -0.514    22.0513   997.7734 0.0000e+00
     -0.353      0.034     8.4733     97.065     26.591  25.039037     0.2630     10.236   250.2469 8.9998e+02     1.1490     -0.348     -0.505    22.0557   997.7725 0.0000e+00
     -0.343      0.040     8.3603     95.778     26.571  25.022197     0.2632     10.216   249.8368 9.8496e+02     1.1580     -0.337     -0.489    22.0623   997.7710 0.0000e+00
     -0.329      0.045     8.1761     93.678     26.528  24.984527     0.2512     10.191   249.4298 1.2380e+03     1.1215     -0.324     -0.469    22.0687   997.7696 0.0000e+00
     -0.314      0.045     7.9435     91.023     26.503  24.964189     0.2383     10.168   249.1115 1.5458e+03     1.1009     -0.309     -0.447    22.0738   997.7685 0.0000e+00
     -0.300      0.041     7.6924     88.152     26.503  24.966611     0.2287     10.153   249.1719 1.7222e+03     1.1058     -0.293     -0.426    22.0774   997.7678 0.0000e+00
     -0.289      0.034     7.4521     85.401     26.484  24.950371     0.2310     10.148   249.3860 1.7076e+03     1.1150     -0.283     -0.410    22.0805   997.7671 0.0000e+00
     -0.281      0.026     7.2414     82.988     26.492  24.958138     0.2401     10.147   249.5489 1.6165e+03     1.1131     -0.274     -0.398    22.0875   997.7655 0.0000e+00
