* Sea-Bird SBE19plus  Data File:
* FileName = C:\DATA\061719_FCR_0003.hex
* Software version 2.8.0.119 SB_Terminal.dll
* Temperature SN = 7809
* Conductivity SN = 7809
* System UpLoad Time = Jun 17 2019 17:01:01
* <ApplicationData>
* <Seaterm232>
* <SoftwareVersion>2.8.0.119</SoftwareVersion>
* <BuildDate>07-Nov-2018</BuildDate>
* </Seaterm232>
* </ApplicationData>
* cast   3 17 Jun 2019 09:56:47 samples 2312 to 3377, avg = 1, stop = mag switch
# nquan = 16
# nvalues = 878                         
# units = specified
# name 0 = depFM: Depth [fresh water, m]
# name 1 = dz/dtM: Descent Rate [m/s]
# name 2 = sbeox0Mg/L: Oxygen, SBE 43 [mg/l]
# name 3 = sbeox0PS: Oxygen, SBE 43 [% saturation]
# name 4 = specc: Specific Conductance [uS/cm]
# name 5 = c0uS/cm: Conductivity [uS/cm]
# name 6 = flECO-AFL: Fluorescence, WET Labs ECO-AFL/FL [mg/m^3]
# name 7 = ph: pH
# name 8 = orp: Oxidation Reduction Potential [mV]
# name 9 = par/sat/log: PAR/Logarithmic, Satlantic
# name 10 = turbWETntu0: Turbidity, WET Labs ECO [NTU]
# name 11 = prdM: Pressure, Strain Gauge [db]
# name 12 = prdE: Pressure, Strain Gauge [psi]
# name 13 = tv290C: Temperature [ITS-90, deg C]
# name 14 = density00: Density [density, kg/m^3]
# name 15 = flag:  0.000e+00
# span 0 =     -0.581,      9.633       
# span 1 =     -0.105,      0.180       
# span 2 =     3.8299,    11.3265       
# span 3 =     34.623,    117.275       
# span 4 =      0.927,     58.591       
# span 5 =   0.974986,  57.999341       
# span 6 =    -1.3313,     3.9072       
# span 7 =      7.297,     10.288       
# span 8 = -1240.7455,   435.2813       
# span 9 = 1.2351e-01, 1.7716e+03       
# span 10 =    -9.9491,   851.6011      
# span 11 =     -0.570,      9.447      
# span 12 =     -0.826,     13.701      
# span 13 =    10.3465,    27.6064      
# span 14 =   996.3537,   999.7302      
# span 15 = 0.0000e+00, 0.0000e+00      
# interval = seconds: 0.25
# start_time = Jun 17 2019 09:56:47 [Instrument's time stamp, header]
# bad_flag = -9.990e-29
# <Sensors count="9" >
#   <sensor Channel="1" >
#     <!-- Count, Temperature -->
#     <TemperatureSensor SensorID="58" >
#       <SerialNumber>7809</SerialNumber>
#       <CalibrationDate>24-Mar-19</CalibrationDate>
#       <A0>1.21792325e-003</A0>
#       <A1>2.81669265e-004</A1>
#       <A2>-1.60333336e-006</A2>
#       <A3>1.98414625e-007</A3>
#       <Slope>1.00000000</Slope>
#       <Offset>0.0000</Offset>
#     </TemperatureSensor>
#   </sensor>
#   <sensor Channel="2" >
#     <!-- Frequency 0, Conductivity -->
#     <ConductivitySensor SensorID="3" >
#       <SerialNumber>7809</SerialNumber>
#       <CalibrationDate>24-Mar-19</CalibrationDate>
#       <UseG_J>1</UseG_J>
#       <!-- Cell const and series R are applicable only for wide range sensors. -->
#       <SeriesR>0.0000</SeriesR>
#       <CellConst>2000.0000</CellConst>
#       <ConductivityType>0</ConductivityType>
#       <Coefficients equation="0" >
#         <A>0.00000000e+000</A>
#         <B>0.00000000e+000</B>
#         <C>0.00000000e+000</C>
#         <D>0.00000000e+000</D>
#         <M>0.0</M>
#         <CPcor>-9.57000000e-008</CPcor>
#       </Coefficients>
#       <Coefficients equation="1" >
#         <G>-1.00589325e+000</G>
#         <H>1.26816302e-001</H>
#         <I>-1.51560448e-004</I>
#         <J>2.67137274e-005</J>
#         <CPcor>-9.57000000e-008</CPcor>
#         <CTcor>3.2500e-006</CTcor>
#         <!-- WBOTC not applicable unless ConductivityType = 1. -->
#         <WBOTC>0.00000000e+000</WBOTC>
#       </Coefficients>
#       <Slope>1.00000000</Slope>
#       <Offset>0.00000</Offset>
#     </ConductivitySensor>
#   </sensor>
#   <sensor Channel="3" >
#     <!-- Count, Pressure, Strain Gauge -->
#     <PressureSensor SensorID="46" >
#       <SerialNumber>7809</SerialNumber>
#       <CalibrationDate>11-Mar-19</CalibrationDate>
#       <PA0>4.56561833e-002</PA0>
#       <PA1>4.85095118e-004</PA1>
#       <PA2>-2.88327090e-012</PA2>
#       <PTEMPA0>-5.48784562e+001</PTEMPA0>
#       <PTEMPA1>5.53756816e+001</PTEMPA1>
#       <PTEMPA2>-5.86727098e-001</PTEMPA2>
#       <PTCA0>5.25246745e+005</PTCA0>
#       <PTCA1>1.22304214e+001</PTCA1>
#       <PTCA2>-3.56745036e-001</PTCA2>
#       <PTCB0>2.51668750e+001</PTCB0>
#       <PTCB1>3.75000000e-004</PTCB1>
#       <PTCB2>0.00000000e+000</PTCB2>
#       <Offset>0.000000</Offset>
#     </PressureSensor>
#   </sensor>
#   <sensor Channel="4" >
#     <!-- A/D voltage 0, Oxygen, SBE 43 -->
#     <OxygenSensor SensorID="38" >
#       <SerialNumber>0434</SerialNumber>
#       <CalibrationDate>13-Apr-19</CalibrationDate>
#       <Use2007Equation>1</Use2007Equation>
#       <CalibrationCoefficients equation="0" >
#         <!-- Coefficients for Owens-Millard equation. -->
#         <Boc>0.0000</Boc>
#         <Soc>0.0000e+000</Soc>
#         <offset>0.0000</offset>
#         <Pcor>0.00e+000</Pcor>
#         <Tcor>0.0000</Tcor>
#         <Tau>0.0</Tau>
#       </CalibrationCoefficients>
#       <CalibrationCoefficients equation="1" >
#         <!-- Coefficients for Sea-Bird equation - SBE calibration in 2007 and later. -->
#         <Soc>4.2007e-001</Soc>
#         <offset>-0.6109</offset>
#         <A>-4.3656e-003</A>
#         <B> 1.7017e-004</B>
#         <C>-2.5341e-006</C>
#         <D0> 2.5826e+000</D0>
#         <D1> 1.92634e-004</D1>
#         <D2>-4.64803e-002</D2>
#         <E> 3.6000e-002</E>
#         <Tau20> 1.1800</Tau20>
#         <H1>-3.3000e-002</H1>
#         <H2> 5.0000e+003</H2>
#         <H3> 1.4500e+003</H3>
#       </CalibrationCoefficients>
#     </OxygenSensor>
#   </sensor>
#   <sensor Channel="5" >
#     <!-- A/D voltage 1, PAR/Logarithmic, Satlantic -->
#     <PARLog_SatlanticSensor SensorID="76" >
#       <SerialNumber>1122</SerialNumber>
#       <CalibrationDate>08-May-2019</CalibrationDate>
#       <a0>9.7456e-001</a0>
#       <a1>8.1640e-001</a1>
#       <Im>1.3589e+000</Im>
#       <Multiplier>1.0000e+000</Multiplier>
#     </PARLog_SatlanticSensor>
#   </sensor>
#   <sensor Channel="6" >
#     <!-- A/D voltage 2, pH -->
#     <pH_Sensor SensorID="43" >
#       <SerialNumber>0363</SerialNumber>
#       <CalibrationDate>15-Apr-19</CalibrationDate>
#       <Slope>4.5952</Slope>
#       <Offset>2.5370</Offset>
#     </pH_Sensor>
#   </sensor>
#   <sensor Channel="7" >
#     <!-- A/D voltage 3, Oxidation Reduction Potential -->
#     <OxidationReductionPotentialSensor SensorID="41" >
#       <SerialNumber>0363</SerialNumber>
#       <CalibrationDate>15-Apr-19</CalibrationDate>
#       <B>2.499480</B>
#       <M>-0.496195</M>
#       <Offset>0.0</Offset>
#     </OxidationReductionPotentialSensor>
#   </sensor>
#   <sensor Channel="8" >
#     <!-- A/D voltage 4, Fluorometer, WET Labs ECO-AFL/FL -->
#     <FluoroWetlabECO_AFL_FL_Sensor SensorID="20" >
#       <SerialNumber>FLNTURT-2496</SerialNumber>
#       <CalibrationDate>08-May-2019</CalibrationDate>
#       <ScaleFactor>5.00000000e+001</ScaleFactor>
#       <!-- Dark output -->
#       <Vblank>0.0550</Vblank>
#     </FluoroWetlabECO_AFL_FL_Sensor>
#   </sensor>
#   <sensor Channel="9" >
#     <!-- A/D voltage 5, Turbidity Meter, WET Labs, ECO-NTU -->
#     <TurbidityMeter SensorID="67" >
#       <SerialNumber>FLNTURT-2496</SerialNumber>
#       <CalibrationDate>08-May-2019</CalibrationDate>
#       <ScaleFactor>189.000000</ScaleFactor>
#       <!-- Dark output -->
#       <DarkVoltage>0.071000</DarkVoltage>
#     </TurbidityMeter>
#   </sensor>
# </Sensors>
# datcnv_date = Jun 17 2019 17:05:34, 7.26.7.129 [datcnv_vars = 15]
# datcnv_in = C:\DATA\061719_FCR_0003.hex C:\DATA\SBE19plusV2_7809.xmlcon
# datcnv_skipover = 0
# datcnv_ox_hysteresis_correction = yes
# datcnv_ox_tau_correction = yes
# filter_date = Jun 17 2019 17:06:38, 7.26.7.129
# filter_in = C:\DATA\061719_FCR_0003.cnv
# filter_low_pass_tc_A = 0.030
# filter_low_pass_tc_B = 0.150
# filter_low_pass_A_vars = prdM prdE tv290C density00
# filter_low_pass_B_vars = depFM dz/dtM sbeox0Mg/L sbeox0PS specc c0uS/cm flECO-AFL ph orp par/sat/log turbWETntu0
# alignctd_date = Jun 17 2019 17:07:04, 7.26.7.129
# alignctd_in = C:\DATA\061719_FCR_0003.cnv
# alignctd_adv = dz/dtM 1.000, sbeox0Mg/L 1.000, sbeox0PS 1.000, specc 1.000, c0uS/cm 1.000, flECO-AFL 1.000, ph 1.000, orp 1.000, turbWETntu0 1.000                                                                                 
# file_type = ascii
*END*
     -0.581 8.6276e-20     7.6195     96.654      1.010   1.062309    -0.1180      7.337 -1240.7455 2.8741e+02    -0.3707     -0.569     -0.826    27.5994   996.3554 0.0000e+00
     -0.580 7.8525e-21     7.6200     96.659      1.008   1.060214    -0.1122      7.322 -1240.7455 6.5362e+02    -0.3649     -0.569     -0.825    27.5992   996.3555 0.0000e+00
     -0.580 8.1191e-22     7.6204     96.663      0.987   1.038222    -0.1077      7.305 -1240.7455 1.2875e+03    -0.3864     -0.569     -0.825    27.5988   996.3555 0.0000e+00
     -0.580 1.1523e-21     7.6204     96.661      0.998   1.049837    -0.1068      7.297 -1240.7455 1.2853e+03    -0.4993     -0.570     -0.826    27.5981   996.3557 0.0000e+00
     -0.580 1.1968e-20     7.6211     96.669      1.021   1.073932    -0.1183      7.301 -1240.7455 6.6445e+02    -0.5508     -0.569     -0.825    27.5970   996.3560 0.0000e+00
     -0.580 1.3158e-19     7.6217     96.677      1.023   1.076113    -0.1255      7.307 -1240.7455 3.4211e+02    -0.5171     -0.569     -0.825    27.5965   996.3562 0.0000e+00
     -0.581 1.4474e-18     7.6203     96.660      1.023   1.076218    -0.1162      7.311 -1240.7455 6.6034e+02    -0.5179     -0.569     -0.826    27.5962   996.3563 0.0000e+00
     -0.581 1.5921e-17     7.6189     96.643      1.022   1.075199    -0.1093      7.314 -1240.7455 1.3072e+03    -0.5277     -0.570     -0.826    27.5949   996.3566 0.0000e+00
     -0.581 1.7513e-16     7.6195     96.650      1.011   1.063785    -0.1117      7.318 -1240.7455 1.6660e+03    -0.5379     -0.569     -0.825    27.5942   996.3568 0.0000e+00
     -0.580 1.9265e-15     7.6207     96.664      1.012   1.064936    -0.1106      7.321 -1240.7455 1.7125e+03    -0.5420     -0.569     -0.826    27.5943   996.3568 0.0000e+00
     -0.580 2.1191e-14     7.6212     96.669      1.035   1.089118    -0.1050      7.323 -1240.7455 1.7344e+03    -0.5122     -0.568     -0.825    27.5949   996.3566 0.0000e+00
     -0.580 2.3310e-13     7.6216     96.671      1.048   1.102719    -0.1039      7.326 -1240.7455 1.7212e+03    -0.5054     -0.569     -0.824    27.5951   996.3566 0.0000e+00
     -0.580 2.5641e-12     7.6226     96.682      1.048   1.102674    -0.1069      7.331 -1240.7455 1.6819e+03    -0.5248     -0.569     -0.825    27.5949   996.3567 0.0000e+00
     -0.580 2.8205e-11     7.6231     96.687      1.034   1.088567    -0.1065      7.336 -1240.7455 1.6520e+03    -0.5175     -0.569     -0.825    27.5947   996.3567 0.0000e+00
     -0.580 3.1026e-10     7.6238     96.694      1.006   1.058872    -0.1078      7.338 -1240.7455 1.3880e+03    -0.5158     -0.569     -0.825    27.5929   996.3572 0.0000e+00
     -0.580 3.4129e-09     7.6249     96.706      0.947   0.997076    -0.1130      7.339 -1240.7455 1.1284e+03    -0.5365     -0.569     -0.825    27.5914   996.3577 0.0000e+00
     -0.580 3.7541e-08     7.6235     96.689      0.927   0.974986    -0.1095      7.341 -1240.7454 1.3690e+03    -0.5380     -0.570     -0.826    27.5908   996.3578 0.0000e+00
     -0.580 4.1296e-07     7.6231     96.685      0.994   1.045220    -0.0909      7.341 -1240.7445 1.6250e+03    -0.5344     -0.569     -0.826    27.5898   996.3580 0.0000e+00
     -0.580      0.000     7.6241     96.697      1.033   1.085961    -0.0610      7.339 -1240.7346 1.5704e+03    -0.5255     -0.569     -0.826    27.5885   996.3585 0.0000e+00
     -0.580      0.000     7.6234     96.690      1.034   1.087422     0.2347      7.338 -1240.6257 1.1737e+03    -0.5286     -0.568     -0.824    27.5884   996.3584 0.0000e+00
     -0.580      0.001     7.6234     96.692      1.010   1.062886     0.8045      7.338 -1239.4277 5.2563e+02    -0.5401     -0.569     -0.825    27.5874   996.3587 0.0000e+00
     -0.580      0.001     7.6240     96.700      0.991   1.042737     1.1240      7.345 -1226.2493 1.8834e+02    -0.5001     -0.569     -0.825    27.5886   996.3584 0.0000e+00
     -0.579      0.002     7.6249     96.700      1.286   1.350675     1.1492      7.453 -1081.2871 1.8202e+02    -0.5038     -0.568     -0.824    27.5869   996.3588 0.0000e+00
     -0.579      0.007     7.6360     96.707      4.336   4.532707     1.0930      7.738  -504.8051 3.8519e+02    -0.7491     -0.568     -0.823    27.5912   996.3577 0.0000e+00
     -0.579      0.022     7.6882     96.746     12.448  12.897830     0.4613      8.109   213.1696 5.9789e+02    -3.2361     -0.569     -0.825    27.5871   996.3588 0.0000e+00
     -0.579      0.051     7.7925     96.815     23.526  24.079291    -0.6972      8.513   435.2813 6.7703e+02    -7.7971     -0.567     -0.823    27.5969   996.3562 0.0000e+00
     -0.576      0.088     7.9059     96.883     32.365  32.744370    -1.3309      8.942   376.8300 1.0566e+03    -9.9491     -0.569     -0.826    27.5831   996.3598 0.0000e+00
     -0.558      0.125     7.9968     96.951     35.510  35.574724    -1.3313      9.322   367.7781 1.4665e+03    -5.8240     -0.559     -0.811    27.6064   996.3537 0.0000e+00
     -0.513      0.154     8.0694     97.016     35.262  35.014841    -0.6672      9.609   362.7458 1.3322e+03    42.4392     -0.510     -0.739    27.3388   996.4304 0.0000e+00
     -0.448      0.173     8.1295     97.077     34.788  34.288779     0.5515      9.813   358.7463 1.1590e+03   130.9752     -0.441     -0.640    26.4357   996.6812 0.0000e+00
     -0.381      0.180     8.1793     97.174     34.657  33.967302     1.2144      9.958   355.2990 1.4434e+03   178.9887     -0.364     -0.528    25.5880   996.9107 0.0000e+00
     -0.332      0.173     8.2211     97.335     35.001  34.173942     1.2600     10.067   352.3836 1.7184e+03   179.3280     -0.317     -0.459    25.0617   997.0474 0.0000e+00
     -0.301      0.154     8.2581     97.559     35.487  34.565785     1.1115     10.149   349.7382 1.7481e+03   134.4220     -0.296     -0.430    24.6116   997.1619 0.0000e+00
     -0.271      0.131     8.2931     97.841     35.749  34.770094     0.8415     10.214   347.4913 1.7406e+03    51.3898     -0.266     -0.387    24.2414   997.2547 0.0000e+00
     -0.238      0.115     8.3260     98.163     35.875  34.867113     0.7009     10.259   344.9186 1.7425e+03     6.1033     -0.233     -0.338    23.9640   997.3235 0.0000e+00
     -0.209      0.109     8.3565     98.498     35.998  34.977193     0.6943     10.282   341.7770 1.7428e+03     2.0247     -0.201     -0.291    23.7934   997.3656 0.0000e+00
     -0.188      0.107     8.3875     98.863     36.045  35.022113     0.6928     10.288   339.4476 1.7319e+03     1.6504     -0.184     -0.267    23.6814   997.3932 0.0000e+00
     -0.165      0.100     8.4139     99.209     35.973  34.965952     0.6814     10.287   337.8351 1.7100e+03     1.5779     -0.166     -0.242    23.6134   997.4098 0.0000e+00
     -0.135      0.087     8.4294     99.494     35.834  34.869385     0.6779     10.283   336.9066 1.6409e+03     1.5735     -0.135     -0.195    23.5816   997.4178 0.0000e+00
     -0.102      0.071     8.4398     99.731     35.594  34.679661     0.6861     10.278   335.7925 1.3452e+03     1.5972     -0.097     -0.140    23.5752   997.4195 0.0000e+00
     -0.080      0.053     8.4457     99.844     35.210  34.322214     0.7111     10.275   333.5713 8.2680e+02     1.5706     -0.070     -0.102    23.5711   997.4207 0.0000e+00
     -0.074      0.030     8.4435     99.777     34.738  33.847744     0.7546     10.275   331.7312 5.5429e+02     1.5466     -0.072     -0.103    23.5770   997.4192 0.0000e+00
     -0.076      0.007     8.4312     99.567     34.353  33.448830     0.7782     10.271   330.8378 7.5924e+02     1.6025     -0.077     -0.111    23.6438   997.4029 0.0000e+00
     -0.080     -0.011     8.4042     99.207     34.223  33.306743     0.7801     10.261   329.8252 1.1471e+03     1.6561     -0.075     -0.109    23.7297   997.3819 0.0000e+00
     -0.088     -0.021     8.3342     98.361     34.260  33.335554     0.7784     10.248   328.2635 1.4520e+03     1.6378     -0.084     -0.122    23.7521   997.3763 0.0000e+00
     -0.099     -0.026     8.2192     96.983     34.286  33.352935     0.7743     10.233   326.9266 1.6355e+03     1.6098     -0.101     -0.147    23.7168   997.3847 0.0000e+00
     -0.105     -0.026     8.1249     95.844     34.269  33.326501     0.7824     10.213   326.3082 1.6939e+03     1.6125     -0.105     -0.152    23.6704   997.3958 0.0000e+00
     -0.108     -0.024     8.0794     95.288     34.284  33.333233     0.7987     10.192   326.0353 1.6932e+03     1.6052     -0.101     -0.149    23.6500   997.4008 0.0000e+00
     -0.116     -0.019     8.0531     94.961     34.329  33.370862     0.8070     10.170   325.7778 1.7222e+03     1.5875     -0.115     -0.167    23.6480   997.4013 0.0000e+00
     -0.124     -0.014     8.0237     94.601     34.365  33.400689     0.7782     10.150   325.3455 1.7516e+03     1.5613     -0.125     -0.182    23.6345   997.4045 0.0000e+00
     -0.126     -0.010     7.9816     94.093     34.410  33.440013     0.7187     10.129   324.9390 1.7558e+03     1.5183     -0.123     -0.179    23.6166   997.4088 0.0000e+00
     -0.126     -0.006     7.9182     93.340     34.439  33.465540     0.6863     10.109   324.4759 1.7520e+03     1.5270     -0.123     -0.178    23.6073   997.4110 0.0000e+00
     -0.126     -0.002     7.8310     92.310     34.429  33.455484     0.6899     10.091   323.6174 1.7517e+03     1.5677     -0.124     -0.179    23.5995   997.4130 0.0000e+00
     -0.125      0.001     7.7267     91.081     34.419  33.445351     0.7016     10.076   322.8191 1.7489e+03     1.5518     -0.123     -0.178    23.5903   997.4152 0.0000e+00
     -0.124      0.001     7.6140     89.760     34.440  33.469946     0.6974     10.061   322.3094 1.7433e+03     1.5304     -0.122     -0.177    23.5828   997.4171 0.0000e+00
     -0.123      0.001     7.5119     88.572     34.464  33.499026     0.6822     10.048   321.7567 1.7411e+03     1.5392     -0.121     -0.176    23.5802   997.4178 0.0000e+00
     -0.123      0.001     7.4344     87.672     34.504  33.543111     0.6831     10.038   321.3852 1.7394e+03     1.5274     -0.121     -0.176    23.5800   997.4177 0.0000e+00
     -0.124      0.001     7.3763     86.989     34.584  33.622203     0.6915     10.029   321.0865 1.7399e+03     1.5182     -0.121     -0.176    23.5789   997.4180 0.0000e+00
     -0.124      0.001     7.3342     86.487     34.595  33.630299     0.6877     10.021   320.2105 1.7401e+03     1.5588     -0.121     -0.176    23.5825   997.4172 0.0000e+00
     -0.123      0.001     7.3089     86.180     34.545  33.577537     0.6804     10.013   319.1382 1.7391e+03     1.5927     -0.121     -0.175    23.5952   997.4141 0.0000e+00
     -0.123      0.001     7.2918     85.971     34.525  33.555423     0.6810     10.005   318.1020 1.7307e+03     1.6005     -0.120     -0.175    23.6056   997.4116 0.0000e+00
     -0.122      0.001     7.2700     85.711     34.524  33.553309     0.6867      9.996   316.8887 1.6544e+03     1.6206     -0.120     -0.174    23.6063   997.4115 0.0000e+00
     -0.122      0.001     7.2360     85.306     34.524  33.551973     0.6889      9.984   316.0842 1.4334e+03     1.6051     -0.120     -0.174    23.6009   997.4128 0.0000e+00
