* Sea-Bird SBE19plus  Data File:
* FileName = C:\DATA\06202019_FCR_50_0001.hex
* Software version 2.8.0.119 SB_Terminal.dll
* Temperature SN = 7809
* Conductivity SN = 7809
* System UpLoad Time = Jun 20 2019 15:43:28
* <ApplicationData>
* <Seaterm232>
* <SoftwareVersion>2.8.0.119</SoftwareVersion>
* <BuildDate>07-Nov-2018</BuildDate>
* </Seaterm232>
* </ApplicationData>
* cast   1 20 Jun 2019 15:10:10 samples 1 to 1019, avg = 1, stop = mag switch
# nquan = 16
# nvalues = 806                         
# units = specified
# name 0 = depFM: Depth [fresh water, m]
# name 1 = dz/dtM: Descent Rate [m/s]
# name 2 = sbeox0Mg/L: Oxygen, SBE 43 [mg/l]
# name 3 = sbeox0PS: Oxygen, SBE 43 [% saturation]
# name 4 = specc: Specific Conductance [uS/cm]
# name 5 = c0uS/cm: Conductivity [uS/cm]
# name 6 = flECO-AFL: Fluorescence, WET Labs ECO-AFL/FL [mg/m^3]
# name 7 = ph: pH
# name 8 = orp: Oxidation Reduction Potential [mV]
# name 9 = par/sat/log: PAR/Logarithmic, Satlantic
# name 10 = turbWETntu0: Turbidity, WET Labs ECO [NTU]
# name 11 = prdM: Pressure, Strain Gauge [db]
# name 12 = prdE: Pressure, Strain Gauge [psi]
# name 13 = tv290C: Temperature [ITS-90, deg C]
# name 14 = density00: Density [density, kg/m^3]
# name 15 = flag:  0.000e+00
# span 0 =     -0.699,      9.520       
# span 1 =     -0.007,      0.202       
# span 2 =    -0.3176,    11.9813       
# span 3 =     -2.815,    142.757       
# span 4 =     -0.002,     71.933       
# span 5 =  -0.002433,  50.366914       
# span 6 =    -0.1449,     4.0710       
# span 7 =     -2.355,     10.282       
# span 8 =  -218.3423,   863.0207       
# span 9 = 1.2342e-01, 3.0011e+02       
# span 10 =    -0.5521,    48.9460      
# span 11 =     -0.686,      9.337      
# span 12 =     -0.994,     13.542      
# span 13 =    10.0024,    24.9013      
# span 14 =   997.0893,   999.7731      
# span 15 = 0.0000e+00, 0.0000e+00      
# interval = seconds: 0.25
# start_time = Jun 20 2019 15:10:10 [Instrument's time stamp, header]
# bad_flag = -9.990e-29
# <Sensors count="9" >
#   <sensor Channel="1" >
#     <!-- Count, Temperature -->
#     <TemperatureSensor SensorID="58" >
#       <SerialNumber>7809</SerialNumber>
#       <CalibrationDate>24-Mar-19</CalibrationDate>
#       <A0>1.21792325e-003</A0>
#       <A1>2.81669265e-004</A1>
#       <A2>-1.60333336e-006</A2>
#       <A3>1.98414625e-007</A3>
#       <Slope>1.00000000</Slope>
#       <Offset>0.0000</Offset>
#     </TemperatureSensor>
#   </sensor>
#   <sensor Channel="2" >
#     <!-- Frequency 0, Conductivity -->
#     <ConductivitySensor SensorID="3" >
#       <SerialNumber>7809</SerialNumber>
#       <CalibrationDate>24-Mar-19</CalibrationDate>
#       <UseG_J>1</UseG_J>
#       <!-- Cell const and series R are applicable only for wide range sensors. -->
#       <SeriesR>0.0000</SeriesR>
#       <CellConst>2000.0000</CellConst>
#       <ConductivityType>0</ConductivityType>
#       <Coefficients equation="0" >
#         <A>0.00000000e+000</A>
#         <B>0.00000000e+000</B>
#         <C>0.00000000e+000</C>
#         <D>0.00000000e+000</D>
#         <M>0.0</M>
#         <CPcor>-9.57000000e-008</CPcor>
#       </Coefficients>
#       <Coefficients equation="1" >
#         <G>-1.00589325e+000</G>
#         <H>1.26816302e-001</H>
#         <I>-1.51560448e-004</I>
#         <J>2.67137274e-005</J>
#         <CPcor>-9.57000000e-008</CPcor>
#         <CTcor>3.2500e-006</CTcor>
#         <!-- WBOTC not applicable unless ConductivityType = 1. -->
#         <WBOTC>0.00000000e+000</WBOTC>
#       </Coefficients>
#       <Slope>1.00000000</Slope>
#       <Offset>0.00000</Offset>
#     </ConductivitySensor>
#   </sensor>
#   <sensor Channel="3" >
#     <!-- Count, Pressure, Strain Gauge -->
#     <PressureSensor SensorID="46" >
#       <SerialNumber>7809</SerialNumber>
#       <CalibrationDate>11-Mar-19</CalibrationDate>
#       <PA0>4.56561833e-002</PA0>
#       <PA1>4.85095118e-004</PA1>
#       <PA2>-2.88327090e-012</PA2>
#       <PTEMPA0>-5.48784562e+001</PTEMPA0>
#       <PTEMPA1>5.53756816e+001</PTEMPA1>
#       <PTEMPA2>-5.86727098e-001</PTEMPA2>
#       <PTCA0>5.25246745e+005</PTCA0>
#       <PTCA1>1.22304214e+001</PTCA1>
#       <PTCA2>-3.56745036e-001</PTCA2>
#       <PTCB0>2.51668750e+001</PTCB0>
#       <PTCB1>3.75000000e-004</PTCB1>
#       <PTCB2>0.00000000e+000</PTCB2>
#       <Offset>0.000000</Offset>
#     </PressureSensor>
#   </sensor>
#   <sensor Channel="4" >
#     <!-- A/D voltage 0, Oxygen, SBE 43 -->
#     <OxygenSensor SensorID="38" >
#       <SerialNumber>0434</SerialNumber>
#       <CalibrationDate>13-Apr-19</CalibrationDate>
#       <Use2007Equation>1</Use2007Equation>
#       <CalibrationCoefficients equation="0" >
#         <!-- Coefficients for Owens-Millard equation. -->
#         <Boc>0.0000</Boc>
#         <Soc>0.0000e+000</Soc>
#         <offset>0.0000</offset>
#         <Pcor>0.00e+000</Pcor>
#         <Tcor>0.0000</Tcor>
#         <Tau>0.0</Tau>
#       </CalibrationCoefficients>
#       <CalibrationCoefficients equation="1" >
#         <!-- Coefficients for Sea-Bird equation - SBE calibration in 2007 and later. -->
#         <Soc>4.2007e-001</Soc>
#         <offset>-0.6109</offset>
#         <A>-4.3656e-003</A>
#         <B> 1.7017e-004</B>
#         <C>-2.5341e-006</C>
#         <D0> 2.5826e+000</D0>
#         <D1> 1.92634e-004</D1>
#         <D2>-4.64803e-002</D2>
#         <E> 3.6000e-002</E>
#         <Tau20> 1.1800</Tau20>
#         <H1>-3.3000e-002</H1>
#         <H2> 5.0000e+003</H2>
#         <H3> 1.4500e+003</H3>
#       </CalibrationCoefficients>
#     </OxygenSensor>
#   </sensor>
#   <sensor Channel="5" >
#     <!-- A/D voltage 1, PAR/Logarithmic, Satlantic -->
#     <PARLog_SatlanticSensor SensorID="76" >
#       <SerialNumber>1122</SerialNumber>
#       <CalibrationDate>08-May-2019</CalibrationDate>
#       <a0>9.7456e-001</a0>
#       <a1>8.1640e-001</a1>
#       <Im>1.3589e+000</Im>
#       <Multiplier>1.0000e+000</Multiplier>
#     </PARLog_SatlanticSensor>
#   </sensor>
#   <sensor Channel="6" >
#     <!-- A/D voltage 2, pH -->
#     <pH_Sensor SensorID="43" >
#       <SerialNumber>0363</SerialNumber>
#       <CalibrationDate>15-Apr-19</CalibrationDate>
#       <Slope>4.5952</Slope>
#       <Offset>2.5370</Offset>
#     </pH_Sensor>
#   </sensor>
#   <sensor Channel="7" >
#     <!-- A/D voltage 3, Oxidation Reduction Potential -->
#     <OxidationReductionPotentialSensor SensorID="41" >
#       <SerialNumber>0363</SerialNumber>
#       <CalibrationDate>15-Apr-19</CalibrationDate>
#       <B>2.499480</B>
#       <M>-0.496195</M>
#       <Offset>0.0</Offset>
#     </OxidationReductionPotentialSensor>
#   </sensor>
#   <sensor Channel="8" >
#     <!-- A/D voltage 4, Fluorometer, WET Labs ECO-AFL/FL -->
#     <FluoroWetlabECO_AFL_FL_Sensor SensorID="20" >
#       <SerialNumber>FLNTURT-2496</SerialNumber>
#       <CalibrationDate>08-May-2019</CalibrationDate>
#       <ScaleFactor>5.00000000e+001</ScaleFactor>
#       <!-- Dark output -->
#       <Vblank>0.0550</Vblank>
#     </FluoroWetlabECO_AFL_FL_Sensor>
#   </sensor>
#   <sensor Channel="9" >
#     <!-- A/D voltage 5, Turbidity Meter, WET Labs, ECO-NTU -->
#     <TurbidityMeter SensorID="67" >
#       <SerialNumber>FLNTURT-2496</SerialNumber>
#       <CalibrationDate>08-May-2019</CalibrationDate>
#       <ScaleFactor>189.000000</ScaleFactor>
#       <!-- Dark output -->
#       <DarkVoltage>0.071000</DarkVoltage>
#     </TurbidityMeter>
#   </sensor>
# </Sensors>
# datcnv_date = Jun 20 2019 15:43:58, 7.26.7.129 [datcnv_vars = 15]
# datcnv_in = C:\DATA\06202019_FCR_50_0001.hex C:\DATA\SBE19plusV2_7809.xmlcon
# datcnv_skipover = 0
# datcnv_ox_hysteresis_correction = yes
# datcnv_ox_tau_correction = yes
# filter_date = Jun 20 2019 15:49:27, 7.26.7.129
# filter_in = C:\DATA\06202019_FCR_50_0001.cnv
# filter_low_pass_tc_A = 0.030
# filter_low_pass_tc_B = 0.150
# filter_low_pass_A_vars = prdM prdE tv290C density00
# filter_low_pass_B_vars = depFM dz/dtM sbeox0Mg/L sbeox0PS specc c0uS/cm flECO-AFL ph orp par/sat/log turbWETntu0
# alignctd_date = Jun 20 2019 15:49:56, 7.26.7.129
# alignctd_in = C:\DATA\06202019_FCR_50_0001.cnv
# alignctd_adv = dz/dtM 1.000, sbeox0Mg/L 1.000, sbeox0PS 1.000, specc 1.000, c0uS/cm 1.000, flECO-AFL 1.000, ph 1.000, orp 1.000, turbWETntu0 1.000                                                                                 
# file_type = ascii
*END*
     -0.698 5.8473e-22     8.4068    100.431      0.386   0.380294    -0.1449     -2.355  -218.3423 3.0011e+02    -0.5521     -0.685     -0.993    24.3720   997.2034 0.0000e+00
     -0.698 6.4320e-21     8.4070    100.410      0.435   0.428340    -0.1383     -2.355   -22.0092 2.9075e+02    -0.4913     -0.685     -0.994    24.3519   997.2154 0.0000e+00
     -0.698 7.0752e-20     8.4061    100.396      0.356   0.351029    -0.1275     -2.355   152.1919 2.8095e+02    -0.4602     -0.684     -0.993    24.3323   997.2218 0.0000e+00
     -0.698 7.7828e-19     8.4053    100.400      0.145   0.142480    -0.1275     -2.355   310.8940 2.7215e+02    -0.4707     -0.685     -0.993    24.3170   997.2245 0.0000e+00
     -0.698 8.5610e-18     8.4040    100.402     -0.002  -0.002433    -0.1294     -2.354   460.8498 2.6193e+02    -0.4545     -0.685     -0.993    24.2966   997.2306 0.0000e+00
     -0.699 9.4171e-17     8.4026    100.407      0.185   0.182815    -0.1240     -2.354   605.9605 2.5348e+02    -0.4282     -0.686     -0.994    24.2810   997.2333 0.0000e+00
     -0.699 1.0359e-15     8.4021    100.419      0.360   0.354878    -0.1225     -2.354   734.7316 2.4953e+02    -0.4473     -0.685     -0.994    24.2810   997.2350 0.0000e+00
     -0.699 1.1395e-14     8.4018    100.431      0.308   0.303983    -0.1288     -2.353   818.6818 2.4727e+02    -0.4886     -0.685     -0.994    24.2915   997.2300 0.0000e+00
     -0.699 1.2534e-13     8.4014    100.440      0.268   0.264392    -0.1308     -2.353   850.2544 2.4647e+02    -0.5017     -0.685     -0.993    24.3025   997.2215 0.0000e+00
     -0.699 1.3788e-12     8.4012    100.448      0.324   0.319697    -0.1298     -2.353   858.0112 2.4512e+02    -0.5072     -0.685     -0.994    24.3130   997.2246 0.0000e+00
     -0.699 1.5166e-11     8.4022    100.468      0.408   0.402442    -0.1343     -2.353   860.9319 2.3927e+02    -0.5224     -0.684     -0.993    24.3227   997.2245 0.0000e+00
     -0.699 1.6683e-10     8.4025    100.477      0.447   0.441204    -0.1416     -2.353   861.3056 2.2294e+02    -0.5215     -0.685     -0.994    24.3309   997.2211 0.0000e+00
     -0.699 1.8351e-09     8.4003    100.452      0.542   0.534934    -0.1405     -2.353   861.3242 1.9421e+02    -0.4965     -0.685     -0.993    24.3378   997.2201 0.0000e+00
     -0.699 2.0186e-08     8.3985    100.423      0.722   0.712050    -0.1375     -2.353   861.4150 1.6351e+02    -0.4827     -0.685     -0.994    24.3435   997.2183 0.0000e+00
     -0.698 2.2205e-07     8.4005    100.436      0.563   0.555210    -0.1406     -2.353   862.1460 1.4515e+02    -0.4853     -0.685     -0.993    24.3474   997.2173 0.0000e+00
     -0.698      0.000     8.4032    100.462      0.161   0.159150    -0.1342     -2.353   863.0207 1.4380e+02    -0.4950     -0.684     -0.993    24.3511   997.2168 0.0000e+00
     -0.698      0.000     8.4022    100.455      0.106   0.104949    -0.1203     -2.349   861.4935 1.4919e+02    -0.5019     -0.684     -0.993    24.3536   997.2154 0.0000e+00
     -0.698      0.000     8.4006    100.441      0.412   0.406777    -0.1115     -2.310   843.2509 1.5259e+02    -0.5035     -0.684     -0.993    24.3488   997.2179 0.0000e+00
     -0.698      0.003     8.3996    100.435      2.894   2.858185    -0.1148     -1.876   647.3554 1.5250e+02    -0.5152     -0.684     -0.992    24.3404   997.2178 0.0000e+00
     -0.698      0.016     8.3964    100.436     11.504  11.367502    -0.1254     -0.051   326.4349 1.5272e+02    -0.5117     -0.684     -0.993    24.3381   997.2126 0.0000e+00
     -0.698      0.043     8.3864    100.450     23.858  23.606820    -0.1270      3.138   214.7100 1.5938e+02    -0.4936     -0.684     -0.992    24.3411   997.2177 0.0000e+00
     -0.697      0.082     8.3694    100.452     31.716  31.439419    -0.1258      6.016   254.7185 1.7061e+02    -0.4928     -0.683     -0.991    24.3450   997.2192 0.0000e+00
     -0.687      0.124     8.3529    100.435     33.744  33.508433    -0.1282      7.808   269.7618 1.8264e+02    -0.5018     -0.685     -0.993    24.3440   997.2178 0.0000e+00
     -0.648      0.161     8.3419    100.428     33.967  33.775129    -0.1028      8.883   276.5723 1.9552e+02    -0.4062     -0.652     -0.945    24.3443   997.2202 0.0000e+00
     -0.577      0.186     8.3362    100.459     33.995  33.839068     0.2409      9.512   278.3852 2.0763e+02     0.7615     -0.564     -0.817    24.4169   997.2068 0.0000e+00
     -0.503      0.200     8.3371    100.551     33.963  33.837324     0.8723      9.861   276.6242 2.1685e+02     2.9003     -0.487     -0.706    24.5581   997.1744 0.0000e+00
     -0.444      0.202     8.3471    100.731     33.921  33.817551     1.2107     10.056   274.3810 2.2299e+02     4.0861     -0.431     -0.625    24.6569   997.1493 0.0000e+00
     -0.400      0.194     8.3668    101.012     33.879  33.790420     1.2465     10.172   274.3210 2.2634e+02     4.1529     -0.386     -0.560    24.7123   997.1357 0.0000e+00
     -0.367      0.183     8.3973    101.407     33.841  33.763145     1.3572     10.239   275.8135 2.2883e+02     3.5115     -0.362     -0.524    24.7675   997.1217 0.0000e+00
     -0.331      0.178     8.4399    101.940     33.813  33.741645     1.5605     10.271   276.5087 2.3252e+02     2.3280     -0.330     -0.479    24.8129   997.1104 0.0000e+00
     -0.284      0.179     8.4917    102.579     33.788  33.720856     1.6758     10.282   276.3601 2.3674e+02     1.6744     -0.281     -0.407    24.8443   997.1026 0.0000e+00
     -0.231      0.187     8.5471    103.257     33.766  33.702183     1.6849     10.281   277.1139 2.3993e+02     1.6059     -0.226     -0.328    24.8662   997.0972 0.0000e+00
     -0.178      0.195     8.6038    103.945     33.769  33.706268     1.6960     10.267   278.0523 2.3381e+02     1.5979     -0.173     -0.250    24.8804   997.0937 0.0000e+00
     -0.129      0.193     8.6593    104.614     33.770  33.706777     1.7238     10.247   278.3278 2.0878e+02     1.6105     -0.126     -0.182    24.8886   997.0919 0.0000e+00
     -0.079      0.181     8.7081    105.198     33.774  33.708335     1.7352     10.227   278.5509 1.7556e+02     1.5949     -0.081     -0.117    24.8956   997.0904 0.0000e+00
     -0.026      0.162     8.7447    105.628     33.794  33.725104     1.7378     10.205   278.4270 1.5587e+02     1.5396     -0.024     -0.035    24.9006   997.0893 0.0000e+00
      0.021      0.142     8.7618    105.803     33.799  33.719136     1.7468     10.181   277.7768 1.5096e+02     1.5319      0.030      0.043    24.9013   997.0894 0.0000e+00
      0.050      0.121     8.7584    105.708     33.799  33.699619     1.7473     10.154   276.9708 1.4915e+02     1.5678      0.053      0.078    24.9001   997.0897 0.0000e+00
      0.068      0.098     8.7425    105.452     33.801  33.679496     1.7452     10.128   276.1664 1.4841e+02     1.6129      0.064      0.093    24.8989   997.0901 0.0000e+00
      0.088      0.075     8.7040    104.922     33.811  33.666184     1.7467     10.105   275.9669 1.4846e+02     1.6192      0.086      0.124    24.8950   997.0912 0.0000e+00
      0.108      0.057     8.6253    103.916     33.831  33.665554     1.7490     10.084   276.1068 1.4807e+02     1.5777      0.109      0.157    24.8796   997.0953 0.0000e+00
      0.122      0.045     8.5057    102.428     33.854  33.671854     1.7640     10.066   275.9651 1.4738e+02     1.5707      0.123      0.178    24.8495   997.1030 0.0000e+00
      0.129      0.035     8.3554    100.585     33.873  33.678864     1.7978     10.051   275.7157 1.4685e+02     1.5996      0.128      0.185    24.8134   997.1122 0.0000e+00
      0.133      0.026     8.2001     98.696     33.888  33.686837     1.8193     10.040   275.3297 1.4675e+02     1.5991      0.130      0.189    24.7788   997.1210 0.0000e+00
      0.136      0.019     8.0715     97.141     33.909  33.704779     1.8164     10.032   275.0828 1.4464e+02     1.5644      0.134      0.194    24.7485   997.1288 0.0000e+00
      0.141      0.015     7.9921     96.180     33.912  33.705405     1.8239     10.024   275.1389 1.4198e+02     1.5079      0.138      0.200    24.7233   997.1352 0.0000e+00
      0.145      0.014     7.9669     95.868     33.904  33.694398     1.8487     10.014   275.0629 1.4294e+02     1.4078      0.142      0.207    24.7047   997.1398 0.0000e+00
      0.147      0.014     7.9836     96.059     33.912  33.698618     1.8647      9.999   274.8523 1.4502e+02     1.3368      0.145      0.210    24.6953   997.1422 0.0000e+00
      0.150      0.013     8.0240     96.539     33.908  33.692963     1.8704      9.984   274.7431 1.4521e+02     1.3380      0.146      0.212    24.6935   997.1428 0.0000e+00
      0.154      0.012     8.0632     97.015     33.903  33.689483     1.8571      9.972   274.6886 1.4507e+02     1.3569      0.151      0.218    24.6915   997.1432 0.0000e+00
      0.159      0.010     8.0819     97.257     33.927  33.720001     1.8247      9.961   274.5379 1.4468e+02     1.3690      0.157      0.228    24.6855   997.1447 0.0000e+00
      0.162      0.008     8.0702     97.145     33.941  33.744655     1.8078      9.950   274.2118 1.4434e+02     1.3538      0.160      0.232    24.6786   997.1466 0.0000e+00
      0.163      0.006     8.0186     96.558     33.916  33.733740     1.8091      9.939   273.7571 1.4347e+02     1.3368      0.160      0.231    24.6743   997.1477 0.0000e+00
      0.163      0.003     7.9219     95.427     33.885  33.714965     1.8149      9.927   273.3413 1.4132e+02     1.3263      0.160      0.232    24.6760   997.1472 0.0000e+00
      0.163      0.001     7.7889     93.852     33.867  33.708059     1.8164      9.913   273.1426 1.3998e+02     1.2923      0.159      0.231    24.6858   997.1448 0.0000e+00
      0.163      0.000     7.6496     92.195     33.865  33.713719     1.8101      9.901   273.0758 1.3917e+02     1.2858      0.160      0.230    24.7032   997.1404 0.0000e+00
      0.162      0.000     7.5424     90.918     33.866  33.719950     1.8081      9.887   272.9635 1.3877e+02     1.3473      0.159      0.231    24.7244   997.1350 0.0000e+00
      0.162      0.000     7.4985     90.398     33.862  33.719939     1.8101      9.873   272.8165 1.3919e+02     1.4454      0.159      0.231    24.7437   997.1301 0.0000e+00
      0.163      0.001     7.5309     90.796     33.852  33.713591     1.8079      9.859   272.7614 1.3902e+02     1.5213      0.160      0.232    24.7598   997.1260 0.0000e+00
      0.163      0.001     7.6297     91.993     33.842  33.706673     1.8075      9.845   272.7276 1.3920e+02     1.5443      0.160      0.232    24.7722   997.1228 0.0000e+00
      0.163      0.001     7.7722     93.717     33.833  33.699761     1.8147      9.833   272.6663 1.4053e+02     1.5271      0.160      0.232    24.7801   997.1208 0.0000e+00
      0.163      0.002     7.9367     95.707     33.824  33.693481     1.8603      9.823   272.7950 1.4040e+02     1.4441      0.160      0.232    24.7855   997.1194 0.0000e+00
      0.164      0.003     8.1020     97.705     33.823  33.694200     1.9424      9.814   273.1651 1.3732e+02     1.3276      0.161      0.233    24.7902   997.1183 0.0000e+00
