* Sea-Bird SBE19plus  Data File:
* FileName = C:\DATA\062419_fcr50_0004.hex
* Software version 2.8.0.119 SB_Terminal.dll
* Temperature SN = 7809
* Conductivity SN = 7809
* System UpLoad Time = Jun 24 2019 17:08:16
* <ApplicationData>
* <Seaterm232>
* <SoftwareVersion>2.8.0.119</SoftwareVersion>
* <BuildDate>07-Nov-2018</BuildDate>
* </Seaterm232>
* </ApplicationData>
* cast   4 24 Jun 2019 11:24:56 samples 1865 to 2491, avg = 1, stop = mag switch
# nquan = 16
# nvalues = 449                         
# units = specified
# name 0 = depFM: Depth [fresh water, m]
# name 1 = dz/dtM: Descent Rate [m/s]
# name 2 = sbeox0Mg/L: Oxygen, SBE 43 [mg/l]
# name 3 = sbeox0PS: Oxygen, SBE 43 [% saturation]
# name 4 = specc: Specific Conductance [uS/cm]
# name 5 = c0uS/cm: Conductivity [uS/cm]
# name 6 = flECO-AFL: Fluorescence, WET Labs ECO-AFL/FL [mg/m^3]
# name 7 = ph: pH
# name 8 = orp: Oxidation Reduction Potential [mV]
# name 9 = par/sat/log: PAR/Logarithmic, Satlantic
# name 10 = turbWETntu0: Turbidity, WET Labs ECO [NTU]
# name 11 = prdM: Pressure, Strain Gauge [db]
# name 12 = prdE: Pressure, Strain Gauge [psi]
# name 13 = tv290C: Temperature [ITS-90, deg C]
# name 14 = density00: Density [density, kg/m^3]
# name 15 = flag:  0.000e+00
# span 0 =     -0.609,      3.204       
# span 1 =     -0.096,      0.231       
# span 2 =    -1.4214,    12.7905       
# span 3 =    -14.600,    139.556       
# span 4 =      1.223,    185.572       
# span 5 =   1.207647, 153.981117       
# span 6 =    -0.8434,     3.1256       
# span 7 =      7.108,     10.164       
# span 8 = -1240.7455,   265.9904       
# span 9 = 3.9464e+01, 2.1509e+03       
# span 10 =    -2.2578,     4.8606      
# span 11 =     -0.597,      3.143      
# span 12 =     -0.867,      4.558      
# span 13 =    16.4640,    24.8588      
# span 14 =   997.1003,   998.9506      
# span 15 = 0.0000e+00, 0.0000e+00      
# interval = seconds: 0.25
# start_time = Jun 24 2019 11:24:56 [Instrument's time stamp, header]
# bad_flag = -9.990e-29
# <Sensors count="9" >
#   <sensor Channel="1" >
#     <!-- Count, Temperature -->
#     <TemperatureSensor SensorID="58" >
#       <SerialNumber>7809</SerialNumber>
#       <CalibrationDate>24-Mar-19</CalibrationDate>
#       <A0>1.21792325e-003</A0>
#       <A1>2.81669265e-004</A1>
#       <A2>-1.60333336e-006</A2>
#       <A3>1.98414625e-007</A3>
#       <Slope>1.00000000</Slope>
#       <Offset>0.0000</Offset>
#     </TemperatureSensor>
#   </sensor>
#   <sensor Channel="2" >
#     <!-- Frequency 0, Conductivity -->
#     <ConductivitySensor SensorID="3" >
#       <SerialNumber>7809</SerialNumber>
#       <CalibrationDate>24-Mar-19</CalibrationDate>
#       <UseG_J>1</UseG_J>
#       <!-- Cell const and series R are applicable only for wide range sensors. -->
#       <SeriesR>0.0000</SeriesR>
#       <CellConst>2000.0000</CellConst>
#       <ConductivityType>0</ConductivityType>
#       <Coefficients equation="0" >
#         <A>0.00000000e+000</A>
#         <B>0.00000000e+000</B>
#         <C>0.00000000e+000</C>
#         <D>0.00000000e+000</D>
#         <M>0.0</M>
#         <CPcor>-9.57000000e-008</CPcor>
#       </Coefficients>
#       <Coefficients equation="1" >
#         <G>-1.00589325e+000</G>
#         <H>1.26816302e-001</H>
#         <I>-1.51560448e-004</I>
#         <J>2.67137274e-005</J>
#         <CPcor>-9.57000000e-008</CPcor>
#         <CTcor>3.2500e-006</CTcor>
#         <!-- WBOTC not applicable unless ConductivityType = 1. -->
#         <WBOTC>0.00000000e+000</WBOTC>
#       </Coefficients>
#       <Slope>1.00000000</Slope>
#       <Offset>0.00000</Offset>
#     </ConductivitySensor>
#   </sensor>
#   <sensor Channel="3" >
#     <!-- Count, Pressure, Strain Gauge -->
#     <PressureSensor SensorID="46" >
#       <SerialNumber>7809</SerialNumber>
#       <CalibrationDate>11-Mar-19</CalibrationDate>
#       <PA0>4.56561833e-002</PA0>
#       <PA1>4.85095118e-004</PA1>
#       <PA2>-2.88327090e-012</PA2>
#       <PTEMPA0>-5.48784562e+001</PTEMPA0>
#       <PTEMPA1>5.53756816e+001</PTEMPA1>
#       <PTEMPA2>-5.86727098e-001</PTEMPA2>
#       <PTCA0>5.25246745e+005</PTCA0>
#       <PTCA1>1.22304214e+001</PTCA1>
#       <PTCA2>-3.56745036e-001</PTCA2>
#       <PTCB0>2.51668750e+001</PTCB0>
#       <PTCB1>3.75000000e-004</PTCB1>
#       <PTCB2>0.00000000e+000</PTCB2>
#       <Offset>0.000000</Offset>
#     </PressureSensor>
#   </sensor>
#   <sensor Channel="4" >
#     <!-- A/D voltage 0, Oxygen, SBE 43 -->
#     <OxygenSensor SensorID="38" >
#       <SerialNumber>0434</SerialNumber>
#       <CalibrationDate>13-Apr-19</CalibrationDate>
#       <Use2007Equation>1</Use2007Equation>
#       <CalibrationCoefficients equation="0" >
#         <!-- Coefficients for Owens-Millard equation. -->
#         <Boc>0.0000</Boc>
#         <Soc>0.0000e+000</Soc>
#         <offset>0.0000</offset>
#         <Pcor>0.00e+000</Pcor>
#         <Tcor>0.0000</Tcor>
#         <Tau>0.0</Tau>
#       </CalibrationCoefficients>
#       <CalibrationCoefficients equation="1" >
#         <!-- Coefficients for Sea-Bird equation - SBE calibration in 2007 and later. -->
#         <Soc>4.2007e-001</Soc>
#         <offset>-0.6109</offset>
#         <A>-4.3656e-003</A>
#         <B> 1.7017e-004</B>
#         <C>-2.5341e-006</C>
#         <D0> 2.5826e+000</D0>
#         <D1> 1.92634e-004</D1>
#         <D2>-4.64803e-002</D2>
#         <E> 3.6000e-002</E>
#         <Tau20> 1.1800</Tau20>
#         <H1>-3.3000e-002</H1>
#         <H2> 5.0000e+003</H2>
#         <H3> 1.4500e+003</H3>
#       </CalibrationCoefficients>
#     </OxygenSensor>
#   </sensor>
#   <sensor Channel="5" >
#     <!-- A/D voltage 1, PAR/Logarithmic, Satlantic -->
#     <PARLog_SatlanticSensor SensorID="76" >
#       <SerialNumber>1122</SerialNumber>
#       <CalibrationDate>08-May-2019</CalibrationDate>
#       <a0>9.7456e-001</a0>
#       <a1>8.1640e-001</a1>
#       <Im>1.3589e+000</Im>
#       <Multiplier>1.0000e+000</Multiplier>
#     </PARLog_SatlanticSensor>
#   </sensor>
#   <sensor Channel="6" >
#     <!-- A/D voltage 2, pH -->
#     <pH_Sensor SensorID="43" >
#       <SerialNumber>0363</SerialNumber>
#       <CalibrationDate>15-Apr-19</CalibrationDate>
#       <Slope>4.5952</Slope>
#       <Offset>2.5370</Offset>
#     </pH_Sensor>
#   </sensor>
#   <sensor Channel="7" >
#     <!-- A/D voltage 3, Oxidation Reduction Potential -->
#     <OxidationReductionPotentialSensor SensorID="41" >
#       <SerialNumber>0363</SerialNumber>
#       <CalibrationDate>15-Apr-19</CalibrationDate>
#       <B>2.499480</B>
#       <M>-0.496195</M>
#       <Offset>0.0</Offset>
#     </OxidationReductionPotentialSensor>
#   </sensor>
#   <sensor Channel="8" >
#     <!-- A/D voltage 4, Fluorometer, WET Labs ECO-AFL/FL -->
#     <FluoroWetlabECO_AFL_FL_Sensor SensorID="20" >
#       <SerialNumber>FLNTURT-2496</SerialNumber>
#       <CalibrationDate>08-May-2019</CalibrationDate>
#       <ScaleFactor>5.00000000e+001</ScaleFactor>
#       <!-- Dark output -->
#       <Vblank>0.0550</Vblank>
#     </FluoroWetlabECO_AFL_FL_Sensor>
#   </sensor>
#   <sensor Channel="9" >
#     <!-- A/D voltage 5, Turbidity Meter, WET Labs, ECO-NTU -->
#     <TurbidityMeter SensorID="67" >
#       <SerialNumber>FLNTURT-2496</SerialNumber>
#       <CalibrationDate>08-May-2019</CalibrationDate>
#       <ScaleFactor>189.000000</ScaleFactor>
#       <!-- Dark output -->
#       <DarkVoltage>0.071000</DarkVoltage>
#     </TurbidityMeter>
#   </sensor>
# </Sensors>
# datcnv_date = Jun 24 2019 17:12:02, 7.26.7.129 [datcnv_vars = 15]
# datcnv_in = C:\DATA\062419_fcr20.hex C:\DATA\SBE19plusV2_7809.xmlcon
# datcnv_skipover = 0
# datcnv_ox_hysteresis_correction = yes
# datcnv_ox_tau_correction = yes
# filter_date = Jun 24 2019 17:12:32, 7.26.7.129
# filter_in = C:\DATA\062419_fcr20.cnv
# filter_low_pass_tc_A = 0.030
# filter_low_pass_tc_B = 0.150
# filter_low_pass_A_vars = prdM prdE tv290C density00
# filter_low_pass_B_vars = depFM dz/dtM sbeox0Mg/L sbeox0PS specc c0uS/cm flECO-AFL ph orp par/sat/log turbWETntu0
# alignctd_date = Jun 24 2019 17:13:10, 7.26.7.129
# alignctd_in = C:\DATA\062419_fcr20.cnv
# alignctd_adv = dz/dtM 1.000, sbeox0Mg/L 1.000, sbeox0PS 1.000, specc 1.000, c0uS/cm 1.000, flECO-AFL 1.000, ph 1.000, orp 1.000, turbWETntu0 1.000                                                                                 
# file_type = ascii
*END*
     -0.608 9.4905e-19     8.0712     96.554      1.286   1.269925    -0.1126      7.134 -1240.7455 1.3536e+02    -0.5086     -0.597     -0.865    24.3696   997.2123 0.0000e+00
     -0.608 8.6275e-20     8.0701     96.543      1.348   1.331663    -0.1202      7.138 -1240.7455 1.3229e+02    -0.5288     -0.597     -0.865    24.3698   997.2122 0.0000e+00
     -0.608 7.8435e-21     8.0687     96.529      1.323   1.306696    -0.1148      7.136 -1240.7455 1.3500e+02    -0.5263     -0.596     -0.865    24.3701   997.2122 0.0000e+00
     -0.608 7.1304e-22     8.0696     96.541      1.301   1.284852    -0.1168      7.128 -1240.7455 1.4022e+02    -0.5104     -0.596     -0.865    24.3704   997.2120 0.0000e+00
     -0.608 6.4747e-23     8.0708     96.556      1.273   1.257631    -0.1263      7.124 -1240.7455 1.3670e+02    -0.5008     -0.597     -0.865    24.3713   997.2119 0.0000e+00
     -0.608 5.0889e-24     8.0703     96.551      1.246   1.231007    -0.1261      7.133 -1240.7455 1.2347e+02    -0.5079     -0.596     -0.864    24.3732   997.2114 0.0000e+00
     -0.609 -8.309e-24     8.0693     96.538      1.231   1.216392    -0.1231      7.140 -1240.7455 1.1340e+02    -0.4981     -0.597     -0.865    24.3749   997.2109 0.0000e+00
     -0.609 -9.725e-23     8.0683     96.527      1.223   1.207647    -0.1158      7.141 -1240.7455 1.1805e+02    -0.4806     -0.597     -0.866    24.3757   997.2107 0.0000e+00
     -0.608 -1.070e-21     8.0687     96.534      1.268   1.251991    -0.1079      7.142 -1240.7455 1.5855e+02    -0.4615     -0.597     -0.865    24.3761   997.2106 0.0000e+00
     -0.608 -1.177e-20     8.0693     96.544      1.326   1.309022    -0.1147      7.142 -1240.7455 4.7441e+02    -0.4631     -0.596     -0.865    24.3760   997.2107 0.0000e+00
     -0.608 -1.295e-19     8.0688     96.539      1.344   1.326962    -0.1197      7.142 -1240.7455 8.7949e+02    -0.4994     -0.597     -0.865    24.3762   997.2106 0.0000e+00
     -0.608 -1.424e-18     8.0673     96.522      1.359   1.342180    -0.1154      7.139 -1240.7455 7.4171e+02    -0.5407     -0.596     -0.865    24.3763   997.2106 0.0000e+00
     -0.608 -1.567e-17     8.0653     96.499      1.383   1.366303    -0.1237      7.137 -1240.7455 3.4386e+02    -0.5686     -0.597     -0.865    24.3774   997.2104 0.0000e+00
     -0.608 -1.724e-16     8.0647     96.492      1.382   1.365186    -0.1333      7.136 -1240.7455 1.9909e+02    -0.5417     -0.597     -0.866    24.3792   997.2099 0.0000e+00
     -0.608 -1.896e-15     8.0655     96.502      1.345   1.328667    -0.1448      7.135 -1240.7455 1.9252e+02    -0.5109     -0.596     -0.865    24.3802   997.2097 0.0000e+00
     -0.608 -2.086e-14     8.0669     96.520      1.321   1.304922    -0.3242      7.132 -1240.7455 1.9572e+02    -0.5894     -0.597     -0.866    24.3804   997.2096 0.0000e+00
     -0.608 -2.294e-13     8.0686     96.541      1.348   1.331533    -0.6630      7.131 -1240.7455 2.0520e+02    -0.7053     -0.596     -0.865    24.3805   997.2095 0.0000e+00
     -0.608 -2.524e-12     8.0707     96.569      1.414   1.396980    -0.8434      7.132 -1240.7455 2.4797e+02    -0.7312     -0.597     -0.866    24.3806   997.2095 0.0000e+00
     -0.608 -2.776e-11     8.0715     96.581      1.480   1.462624    -0.8324      7.136 -1240.7455 5.7660e+02    -0.6407     -0.596     -0.865    24.3809   997.2095 0.0000e+00
     -0.608 -3.054e-10     8.0708     96.575      1.510   1.491615    -0.5993      7.139 -1240.7455 1.1504e+03     0.2583     -0.596     -0.865    24.3812   997.2094 0.0000e+00
     -0.608 -3.359e-09     8.0695     96.560      1.512   1.494063    -0.1662      7.139 -1240.7455 1.3472e+03     1.8793     -0.596     -0.865    24.3818   997.2092 0.0000e+00
     -0.608 -3.695e-08     8.0673     96.534      1.511   1.492221     0.0779      7.140 -1240.7455 1.1334e+03     2.7370     -0.596     -0.865    24.3833   997.2088 0.0000e+00
     -0.608 -4.064e-07     8.0658     96.518      1.488   1.469345     0.1068      7.142 -1240.7455 1.0021e+03     2.7957     -0.596     -0.865    24.3852   997.2084 0.0000e+00
     -0.608     -0.000     8.0650     96.511      1.489   1.470910     0.1140      7.146 -1240.7455 1.1129e+03     2.6874     -0.596     -0.864    24.3865   997.2081 0.0000e+00
     -0.608     -0.000     8.0643     96.506      1.657   1.637867     0.1400      7.151 -1240.7455 1.3907e+03     1.3953     -0.596     -0.864    24.3869   997.2080 0.0000e+00
     -0.608     -0.001     8.0643     96.508      1.927   1.903956     0.1950      7.151 -1240.7455 1.6484e+03    -0.9637     -0.596     -0.864    24.3875   997.2079 0.0000e+00
     -0.608     -0.001     8.0648     96.515      2.052   2.026947     0.2334      7.147 -1240.7455 1.4887e+03    -2.2064     -0.596     -0.865    24.3883   997.2076 0.0000e+00
     -0.609     -0.000     8.0660     96.531      2.072   2.047773     0.2395      7.142 -1240.7455 8.6596e+02    -2.2578     -0.597     -0.866    24.3893   997.2074 0.0000e+00
     -0.609 -1.847e-08     8.0675     96.550      2.182   2.155763     0.1567      7.129 -1240.7455 4.1265e+02    -1.8473     -0.597     -0.866    24.3909   997.2070 0.0000e+00
     -0.609 -2.032e-07     8.0680     96.556      2.283   2.255469    -0.0044      7.108 -1240.7455 7.8156e+02    -1.0119     -0.597     -0.866    24.3922   997.2067 0.0000e+00
     -0.608 -2.032e-07     8.0683     96.561      2.203   2.176129    -0.0881      7.118 -1240.7455 1.6505e+03    -0.5151     -0.596     -0.865    24.3931   997.2065 0.0000e+00
     -0.608 -1.847e-08     8.0678     96.556      2.045   2.020198    -0.1008      7.177 -1240.7455 1.6202e+03    -0.4606     -0.596     -0.865    24.3937   997.2063 0.0000e+00
     -0.609 -1.636e-09     8.0666     96.541      1.978   1.954207    -0.1150      7.217 -1240.7455 6.9025e+02    -0.4843     -0.597     -0.866    24.3940   997.2062 0.0000e+00
     -0.609 3.2702e-10     8.0663     96.539      1.973   1.948501    -0.1118      7.208 -1240.7455 1.6300e+02    -0.5066     -0.597     -0.866    24.3946   997.2061 0.0000e+00
     -0.609 5.2630e-09     8.0667     96.545      1.911   1.887846    -0.0973      7.185 -1240.7455 1.1610e+02    -0.5005     -0.597     -0.866    24.3951   997.2060 0.0000e+00
     -0.608 5.8045e-08     8.0664     96.543      1.813   1.791097    -0.0962      7.170 -1240.7453 1.2477e+02    -0.5086     -0.596     -0.865    24.3955   997.2058 0.0000e+00
     -0.608 6.3851e-07     8.0660     96.539      1.750   1.729164    -0.1062      7.162 -1240.7428 1.8655e+02    -0.5066     -0.596     -0.865    24.3958   997.2058 0.0000e+00
     -0.608      0.000     8.0665     96.548      1.730   1.709280    -0.1149      7.166 -1240.7162 6.8045e+02    -0.4768     -0.597     -0.867    24.3962   997.2057 0.0000e+00
     -0.608      0.000     8.0674     96.562      1.761   1.740765    -0.1225      7.312 -1240.4233 1.5362e+03    -0.4759     -0.596     -0.866    24.3968   997.2055 0.0000e+00
     -0.609      0.001     8.0671     96.562      1.814   1.793040    -0.1291      7.616 -1237.2018 1.5533e+03    -0.4960     -0.597     -0.865    24.3975   997.2053 0.0000e+00
     -0.609      0.004     8.0656     96.547      2.048   2.024522    -0.1253      7.835 -1201.7651 7.0199e+02    -0.4898     -0.597     -0.866    24.3990   997.2049 0.0000e+00
     -0.608      0.013     8.0638     96.537      4.912   4.856402    -0.1025      7.996  -811.9616 1.9630e+02    -0.3354     -0.596     -0.865    24.4000   997.2048 0.0000e+00
     -0.608      0.031     8.0579     96.533     12.968  12.836385    -0.0795      8.306  -111.0968 1.3767e+02    -0.0054     -0.597     -0.866    24.4024   997.2041 0.0000e+00
     -0.605      0.063     8.0437     96.529     23.652  23.453902    -0.0716      8.749   245.0752 1.3016e+02     0.2228     -0.594     -0.861    24.4027   997.2041 0.0000e+00
     -0.595      0.105     8.0244     96.516     31.463  31.262731    -0.0512      9.189   252.7822 1.8238e+02     0.2932     -0.588     -0.854    24.4058   997.2033 0.0000e+00
     -0.571      0.151     8.0088     96.502     34.207  34.047271     0.0982      9.530   245.7113 7.1163e+02     0.8466     -0.570     -0.827    24.4038   997.2040 0.0000e+00
     -0.524      0.192     8.0059     96.548     34.411  34.279851     0.3571      9.768   242.0074 1.6586e+03     1.8992     -0.522     -0.757    24.4206   997.2021 0.0000e+00
     -0.454      0.220     8.0200     96.708     34.400  34.265266     0.4948      9.933   239.0590 2.1509e+03     2.4676     -0.449     -0.652    24.5273   997.1793 0.0000e+00
     -0.375      0.231     8.0495     96.994     34.414  34.251715     0.5145     10.043   236.8214 1.9833e+03     2.5079     -0.365     -0.529    24.6740   997.1454 0.0000e+00
     -0.301      0.225     8.0914     97.405     34.441  34.242884     0.6740     10.113   235.6875 1.3921e+03     2.4193     -0.289     -0.420    24.7775   997.1197 0.0000e+00
     -0.243      0.203     8.1404     97.906     34.454  34.221907     0.9754     10.148   235.4160 8.9901e+02     2.2153     -0.231     -0.336    24.8231   997.1082 0.0000e+00
     -0.202      0.170     8.1882     98.411     34.447  34.188424     1.1405     10.162   235.3450 7.5301e+02     2.0740     -0.196     -0.285    24.8095   997.1120 0.0000e+00
     -0.168      0.133     8.2299     98.864     34.432  34.155333     1.1531     10.164   235.2599 4.6820e+02     2.0545     -0.166     -0.241    24.7622   997.1240 0.0000e+00
     -0.137      0.100     8.2641     99.246     34.426  34.139100     1.1798     10.160   235.0754 1.8975e+02     2.0772     -0.131     -0.189    24.7057   997.1385 0.0000e+00
     -0.114      0.073     8.2880     99.516     34.412  34.119069     1.2375     10.153   234.4051 1.3661e+02     2.0866     -0.107     -0.157    24.6540   997.1517 0.0000e+00
     -0.102      0.050     8.3014     99.663     34.401  34.103514     1.2706     10.145   233.3500 1.2885e+02     2.0698     -0.098     -0.143    24.6148   997.1618 0.0000e+00
     -0.095      0.030     8.3054     99.702     34.442  34.141423     1.2685     10.133   232.4707 1.2649e+02     2.0380     -0.093     -0.135    24.5888   997.1684 0.0000e+00
     -0.092      0.013     8.3020     99.662     34.562  34.260087     1.2470     10.115   232.2057 1.2606e+02     1.9635     -0.088     -0.129    24.5752   997.1717 0.0000e+00
     -0.092      0.001     8.2882     99.523     34.882  34.586302     1.2185     10.095   232.3821 1.2633e+02     1.8571     -0.090     -0.131    24.5682   997.1735 0.0000e+00
     -0.095     -0.006     8.2571     99.220     35.439  35.166233     1.2099     10.076   232.5387 1.2728e+02     1.8007     -0.093     -0.135    24.5609   997.1754 0.0000e+00
     -0.098     -0.010     8.2178     98.851     35.987  35.750403     1.2114     10.061   232.3779 1.2874e+02     1.8065     -0.096     -0.139    24.5552   997.1768 0.0000e+00
     -0.103     -0.011     8.1760     98.450     36.326  36.127770     1.2029     10.047   231.9867 1.2991e+02     1.8286     -0.100     -0.146    24.5519   997.1776 0.0000e+00
     -0.107     -0.010     8.1209     97.866     36.468  36.301641     1.1929     10.030   231.7672 1.3074e+02     1.8390     -0.104     -0.152    24.5597   997.1757 0.0000e+00
     -0.109     -0.009     8.0489     97.053     36.474  36.329416     1.1950     10.014   231.7030 1.3135e+02     1.8326     -0.107     -0.155    24.6012   997.1655 0.0000e+00
